Freq(MHz),Loss
500,-92.34
512.1875,-86.80
524.375,-85.84
536.5625,-88.75
548.75,-88.14
560.9375,-85.18
573.125,-86.24
585.3125,-84.44
597.5,-78.68
609.6875,-83.87
621.875,-87.31
634.0625,-82.16
646.25,-82.13
658.4375,-87.76
670.625,-92.72
682.8125,-81.13
695,-88.15
707.1875,-79.36
719.375,-84.21
731.5625,-86.93
743.75,-76.53
755.9375,-84.84
768.125,-87.79
780.3125,-84.65
792.5,-80.20
804.6875,-82.21
816.875,-94.33
829.0625,-76.19
841.25,-87.33
853.4375,-87.18
865.625,-82.81
877.8125,-84.74
890,-88.68
902.1875,-105.42
914.375,-82.93
926.5625,-78.96
938.75,-84.28
950.9375,-86.63
963.125,-78.99
975.3125,-79.00
987.5,-91.44
999.6875,-76.63
1011.875,-79.20
1024.0625,-86.22
1036.25,-81.36
1048.4375,-80.11
1060.625,-80.20
1072.8125,-85.84
1085,-82.86
1097.1875,-81.43
1109.375,-77.91
1121.5625,-92.24
1133.75,-87.68
1145.9375,-92.77
1158.125,-84.81
1170.3125,-80.00
1182.5,-74.87
1194.6875,-81.26
1206.875,-80.25
1219.0625,-78.15
1231.25,-86.94
1243.4375,-91.87
1255.625,-74.42
1267.8125,-76.80
1280,-77.55
1292.1875,-79.51
1304.375,-88.69
1316.5625,-77.06
1328.75,-78.33
1340.9375,-78.19
1353.125,-89.04
1365.3125,-90.44
1377.5,-79.06
1389.6875,-80.93
1401.875,-81.02
1414.0625,-78.14
1426.25,-81.07
1438.4375,-84.37
1450.625,-90.80
1462.8125,-86.37
1475,-79.20
1487.1875,-81.08
1499.375,-80.63
1511.5625,-79.75
1523.75,-76.38
1535.9375,-82.12
1548.125,-86.16
1560.3125,-79.74
1572.5,-79.35
1584.6875,-83.94
1596.875,-83.07
1609.0625,-76.42
1621.25,-79.39
1633.4375,-71.93
1645.625,-86.16
1657.8125,-78.51
1670,-79.24
1682.1875,-78.05
1694.375,-88.33
1706.5625,-77.91
1718.75,-79.03
1730.9375,-81.41
1743.125,-78.23
1755.3125,-92.62
1767.5,-81.05
1779.6875,-87.01
1791.875,-82.06
1804.0625,-73.98
1816.25,-89.14
1828.4375,-82.58
1840.625,-80.84
1852.8125,-77.44
1865,-75.96
1877.1875,-85.00
1889.375,-81.54
1901.5625,-81.97
1913.75,-81.15
1925.9375,-80.11
1938.125,-79.95
1950.3125,-92.80
1962.5,-84.57
1974.6875,-81.31
1986.875,-79.15
1999.0625,-82.41
2011.25,-82.56
2023.4375,-82.09
2035.625,-95.48
2047.8125,-82.12
2060,-82.39
2072.1875,-75.69
2084.375,-84.94
2096.5625,-75.78
2108.75,-80.74
2120.9375,-78.29
2133.125,-80.05
2145.3125,-84.72
2157.5,-78.09
2169.6875,-77.09
2181.875,-73.43
2194.0625,-77.48
2206.25,-77.10
2218.4375,-91.60
2230.625,-78.65
2242.8125,-77.76
2255,-80.55
2267.1875,-78.77
2279.375,-86.12
2291.5625,-85.62
2303.75,-81.65
2315.9375,-81.57
2328.125,-90.64
2340.3125,-104.42
2352.5,-86.51
2364.6875,-79.53
2376.875,-80.77
2389.0625,-81.50
2401.25,-87.95
2413.4375,-86.71
2425.625,-81.78
2437.8125,-92.12
2450,-75.55
2462.1875,-80.37
2474.375,-78.38
2486.5625,-81.98
2498.75,-80.93
2510.9375,-84.89
2523.125,-76.40
2535.3125,-84.19
2547.5,-79.93
2559.6875,-77.37
2571.875,-77.81
2584.0625,-81.88
2596.25,-83.33
2608.4375,-88.81
2620.625,-74.96
2632.8125,-90.63
2645,-79.47
2657.1875,-88.77
2669.375,-82.04
2681.5625,-77.86
2693.75,-83.13
2705.9375,-100.15
2718.125,-81.30
2730.3125,-83.62
2742.5,-82.21
2754.6875,-87.96
2766.875,-88.51
2779.0625,-85.38
2791.25,-72.41
2803.4375,-73.82
2815.625,-80.08
2827.8125,-80.77
2840,-81.46
2852.1875,-88.13
2864.375,-74.13
2876.5625,-81.27
2888.75,-73.93
2900.9375,-85.42
2913.125,-82.12
2925.3125,-78.46
2937.5,-75.28
2949.6875,-93.42
2961.875,-88.09
2974.0625,-78.54
2986.25,-75.79
2998.4375,-77.76
3010.625,-93.88
3022.8125,-80.66
3035,-80.51
3047.1875,-77.59
3059.375,-82.79
3071.5625,-84.31
3083.75,-81.69
3095.9375,-74.94
3108.125,-82.32
3120.3125,-81.35
3132.5,-87.28
3144.6875,-87.21
3156.875,-79.82
3169.0625,-91.55
3181.25,-100.41
3193.4375,-88.13
3205.625,-90.03
3217.8125,-89.77
3230,-74.18
3242.1875,-75.56
3254.375,-84.21
3266.5625,-81.39
3278.75,-83.00
3290.9375,-77.15
3303.125,-73.50
3315.3125,-86.91
3327.5,-84.66
3339.6875,-82.37
3351.875,-78.72
3364.0625,-79.68
3376.25,-76.41
3388.4375,-87.23
3400.625,-78.04
3412.8125,-77.25
3425,-77.74
3437.1875,-72.98
3449.375,-73.45
3461.5625,-89.99
3473.75,-72.88
3485.9375,-77.42
3498.125,-79.15
3510.3125,-79.68
3522.5,-78.44
3534.6875,-80.88
3546.875,-77.00
3559.0625,-77.46
3571.25,-78.30
3583.4375,-85.93
3595.625,-78.29
3607.8125,-84.54
3620,-72.72
3632.1875,-72.76
3644.375,-78.21
3656.5625,-79.96
3668.75,-81.30
3680.9375,-90.88
3693.125,-77.09
3705.3125,-80.67
3717.5,-88.22
3729.6875,-80.64
3741.875,-75.84
3754.0625,-81.79
3766.25,-81.61
3778.4375,-81.46
3790.625,-88.45
3802.8125,-82.76
3815,-76.10
3827.1875,-76.37
3839.375,-82.49
3851.5625,-72.17
3863.75,-94.83
3875.9375,-74.98
3888.125,-77.74
3900.3125,-76.72
3912.5,-80.31
3924.6875,-81.43
3936.875,-72.35
3949.0625,-79.69
3961.25,-89.74
3973.4375,-87.82
3985.625,-84.98
3997.8125,-74.90
4010,-82.83
4022.1875,-80.97
4034.375,-82.74
4046.5625,-78.82
4058.75,-88.33
4070.9375,-74.74
4083.125,-76.06
4095.3125,-76.20
4107.5,-81.61
4119.6875,-82.71
4131.875,-83.24
4144.0625,-83.54
4156.25,-91.12
4168.4375,-78.09
4180.625,-79.53
4192.8125,-88.56
4205,-77.70
4217.1875,-77.78
4229.375,-77.59
4241.5625,-81.81
4253.75,-76.78
4265.9375,-78.14
4278.125,-75.08
4290.3125,-84.40
4302.5,-84.57
4314.6875,-81.87
4326.875,-77.58
4339.0625,-83.36
4351.25,-80.06
4363.4375,-80.86
4375.625,-84.42
4387.8125,-81.52
4400,-86.06
4412.1875,-76.42
4424.375,-79.79
4436.5625,-84.40
4448.75,-72.31
4460.9375,-79.42
4473.125,-75.72
4485.3125,-81.45
4497.5,-85.27
4509.6875,-78.54
4521.875,-83.21
4534.0625,-77.53
4546.25,-80.81
4558.4375,-87.35
4570.625,-77.00
4582.8125,-80.62
4595,-84.25
4607.1875,-77.34
4619.375,-81.47
4631.5625,-82.03
4643.75,-77.59
4655.9375,-98.37
4668.125,-78.29
4680.3125,-78.29
4692.5,-80.75
4704.6875,-78.35
4716.875,-80.83
4729.0625,-79.26
4741.25,-87.20
4753.4375,-82.53
4765.625,-90.02
4777.8125,-75.99
4790,-84.19
4802.1875,-81.05
4814.375,-81.68
4826.5625,-86.95
4838.75,-78.71
4850.9375,-82.38
4863.125,-77.10
4875.3125,-98.51
4887.5,-84.99
4899.6875,-81.86
4911.875,-78.59
4924.0625,-74.65
4936.25,-86.37
4948.4375,-91.39
4960.625,-76.38
4972.8125,-87.80
4985,-78.90
4997.1875,-81.46
5009.375,-76.40
5021.5625,-86.00
5033.75,-76.61
5045.9375,-82.05
5058.125,-89.54
5070.3125,-76.19
5082.5,-81.85
5094.6875,-82.97
5106.875,-89.23
5119.0625,-82.02
5131.25,-84.21
5143.4375,-83.22
5155.625,-87.28
5167.8125,-80.28
5180,-73.85
5192.1875,-87.79
5204.375,-77.78
5216.5625,-86.57
5228.75,-84.18
5240.9375,-77.33
5253.125,-83.49
5265.3125,-75.20
5277.5,-76.32
5289.6875,-84.29
5301.875,-104.85
5314.0625,-80.07
5326.25,-95.69
5338.4375,-82.80
5350.625,-94.66
5362.8125,-82.43
5375,-88.79
5387.1875,-78.23
5399.375,-87.94
5411.5625,-88.88
5423.75,-85.62
5435.9375,-89.24
5448.125,-81.04
5460.3125,-87.48
5472.5,-90.62
5484.6875,-79.12
5496.875,-78.15
5509.0625,-82.67
5521.25,-83.20
5533.4375,-83.48
5545.625,-83.50
5557.8125,-76.42
5570,-84.36
5582.1875,-82.10
5594.375,-85.60
5606.5625,-78.95
5618.75,-80.74
5630.9375,-75.13
5643.125,-87.37
5655.3125,-82.43
5667.5,-96.00
5679.6875,-85.30
5691.875,-83.01
5704.0625,-76.59
5716.25,-75.64
5728.4375,-74.07
5740.625,-84.47
5752.8125,-74.81
5765,-91.36
5777.1875,-77.28
5789.375,-87.26
5801.5625,-84.30
5813.75,-88.42
5825.9375,-88.60
5838.125,-78.77
5850.3125,-80.99
5862.5,-76.75
5874.6875,-79.29
5886.875,-73.32
5899.0625,-69.67
5911.25,-74.86
5923.4375,-77.70
5935.625,-72.72
5947.8125,-68.62
5960,-66.86
5972.1875,-68.61
5984.375,-67.71
5996.5625,-62.06
6008.75,-61.86
6020.9375,-58.42
6033.125,-57.16
6045.3125,-55.21
6057.5,-52.78
6069.6875,-50.74
6081.875,-47.74
6094.0625,-46.00
6106.25,-44.05
6118.4375,-42.36
6130.625,-40.84
6142.8125,-39.74
6155,-38.03
6167.1875,-36.44
6179.375,-34.46
6191.5625,-32.21
6203.75,-29.56
6215.9375,-26.82
6228.125,-23.89
6240.3125,-20.96
6252.5,-18.11
6264.6875,-15.60
6276.875,-13.51
6289.0625,-11.84
6301.25,-10.48
6313.4375,-9.45
6325.625,-8.72
6337.8125,-8.32
6350,-8.20
6362.1875,-8.24
6374.375,-8.24
6386.5625,-8.01
6398.75,-7.65
6410.9375,-7.29
6423.125,-7.02
6435.3125,-6.83
6447.5,-6.72
6459.6875,-6.72
6471.875,-6.77
6484.0625,-6.81
6496.25,-6.76
6508.4375,-6.66
6520.625,-6.59
6532.8125,-6.56
6545,-6.51
6557.1875,-6.44
6569.375,-6.43
6581.5625,-6.47
6593.75,-6.52
6605.9375,-6.51
6618.125,-6.44
6630.3125,-6.36
6642.5,-6.31
6654.6875,-6.29
6666.875,-6.26
6679.0625,-6.20
6691.25,-6.18
6703.4375,-6.22
6715.625,-6.28
6727.8125,-6.30
6740,-6.23
6752.1875,-6.14
6764.375,-6.08
6776.5625,-6.05
6788.75,-6.02
6800.9375,-5.97
6813.125,-5.97
6825.3125,-6.03
6837.5,-6.11
6849.6875,-6.17
6861.875,-6.20
6874.0625,-6.25
6886.25,-6.34
6898.4375,-6.44
6910.625,-6.44
6922.8125,-6.34
6935,-6.19
6947.1875,-6.06
6959.375,-5.99
6971.5625,-5.96
6983.75,-5.91
6995.9375,-5.87
7008.125,-5.89
7020.3125,-5.96
7032.5,-6.02
7044.6875,-6.03
7056.875,-5.99
7069.0625,-5.95
7081.25,-5.95
7093.4375,-5.97
7105.625,-5.96
7117.8125,-5.91
7130,-5.85
7142.1875,-5.83
7154.375,-5.86
7166.5625,-5.87
7178.75,-5.85
7190.9375,-5.85
7203.125,-5.88
7215.3125,-5.94
7227.5,-5.96
7239.6875,-5.92
7251.875,-5.87
7264.0625,-5.82
7276.25,-5.84
7288.4375,-5.87
7300.625,-5.88
7312.8125,-5.87
7325,-5.88
7337.1875,-5.95
7349.375,-6.05
7361.5625,-6.09
7373.75,-6.06
7385.9375,-6.01
7398.125,-5.96
7410.3125,-5.95
7422.5,-5.94
7434.6875,-5.90
7446.875,-5.84
7459.0625,-5.82
7471.25,-5.84
7483.4375,-5.88
7495.625,-5.91
7507.8125,-5.93
7520,-5.97
7532.1875,-6.07
7544.375,-6.17
7556.5625,-6.22
7568.75,-6.19
7580.9375,-6.13
7593.125,-6.08
7605.3125,-6.08
7617.5,-6.08
7629.6875,-6.03
7641.875,-5.97
7654.0625,-5.92
7666.25,-5.92
7678.4375,-5.97
7690.625,-6.00
7702.8125,-5.98
7715,-5.94
7727.1875,-5.93
7739.375,-5.96
7751.5625,-5.97
7763.75,-5.96
7775.9375,-5.90
7788.125,-5.85
7800.3125,-5.84
7812.5,-5.86
7824.6875,-5.87
7836.875,-5.87
7849.0625,-5.92
7861.25,-6.02
7873.4375,-6.12
7885.625,-6.21
7897.8125,-6.22
7910,-6.18
7922.1875,-6.15
7934.375,-6.17
7946.5625,-6.19
7958.75,-6.16
7970.9375,-6.08
7983.125,-5.99
7995.3125,-5.95
8007.5,-5.95
8019.6875,-5.96
8031.875,-5.95
8044.0625,-5.93
8056.25,-5.95
8068.4375,-6.00
8080.625,-6.06
8092.8125,-6.05
8105,-6.00
8117.1875,-5.94
8129.375,-5.91
8141.5625,-5.92
8153.75,-5.91
8165.9375,-5.89
8178.125,-5.87
8190.3125,-5.91
8202.5,-6.00
8214.6875,-6.08
8226.875,-6.13
8239.0625,-6.14
8251.25,-6.15
8263.4375,-6.22
8275.625,-6.31
8287.8125,-6.36
8300,-6.33
8312.1875,-6.24
8324.375,-6.14
8336.5625,-6.08
8348.75,-6.05
8360.9375,-6.02
8373.125,-5.97
8385.3125,-5.93
8397.5,-5.92
8409.6875,-5.93
8421.875,-5.94
8434.0625,-5.94
8446.25,-5.95
8458.4375,-5.98
8470.625,-6.05
8482.8125,-6.09
8495,-6.09
8507.1875,-6.07
8519.375,-6.04
8531.5625,-6.09
8543.75,-6.13
8555.9375,-6.15
8568.125,-6.12
8580.3125,-6.11
8592.5,-6.12
8604.6875,-6.19
8616.875,-6.28
8629.0625,-6.29
8641.25,-6.25
8653.4375,-6.17
8665.625,-6.11
8677.8125,-6.12
8690,-6.12
8702.1875,-6.11
8714.375,-6.08
8726.5625,-6.05
8738.75,-6.07
8750.9375,-6.09
8763.125,-6.09
8775.3125,-6.12
8787.5,-6.18
8799.6875,-6.28
8811.875,-6.41
8824.0625,-6.46
8836.25,-6.46
8848.4375,-6.42
8860.625,-6.36
8872.8125,-6.35
8885,-6.36
8897.1875,-6.33
8909.375,-6.30
8921.5625,-6.20
8933.75,-6.11
8945.9375,-6.10
8958.125,-6.06
8970.3125,-6.03
8982.5,-6.04
8994.6875,-6.04
9006.875,-6.09
9019.0625,-6.14
9031.25,-6.11
9043.4375,-6.09
9055.625,-6.06
9067.8125,-6.02
9080,-6.04
9092.1875,-6.05
9104.375,-6.06
9116.5625,-6.09
9128.75,-6.15
9140.9375,-6.22
9153.125,-6.28
9165.3125,-6.32
9177.5,-6.35
9189.6875,-6.41
9201.875,-6.47
9214.0625,-6.63
9226.25,-6.69
9238.4375,-6.67
9250.625,-6.59
9262.8125,-6.49
9275,-6.38
9287.1875,-6.37
9299.375,-6.35
9311.5625,-6.32
9323.75,-6.30
9335.9375,-6.30
9348.125,-6.26
9360.3125,-6.27
9372.5,-6.28
9384.6875,-6.32
9396.875,-6.38
9409.0625,-6.48
9421.25,-6.56
9433.4375,-6.60
9445.625,-6.56
9457.8125,-6.52
9470,-6.47
9482.1875,-6.45
9494.375,-6.43
9506.5625,-6.41
9518.75,-6.36
9530.9375,-6.31
9543.125,-6.30
9555.3125,-6.28
9567.5,-6.26
9579.6875,-6.27
9591.875,-6.27
9604.0625,-6.32
9616.25,-6.39
9628.4375,-6.42
9640.625,-6.44
9652.8125,-6.40
9665,-6.37
9677.1875,-6.33
9689.375,-6.35
9701.5625,-6.37
9713.75,-6.35
9725.9375,-6.33
9738.125,-6.32
9750.3125,-6.30
9762.5,-6.34
9774.6875,-6.35
9786.875,-6.36
9799.0625,-6.37
9811.25,-6.41
9823.4375,-6.46
9835.625,-6.49
9847.8125,-6.51
9860,-6.44
9872.1875,-6.39
9884.375,-6.36
9896.5625,-6.34
9908.75,-6.36
9920.9375,-6.31
9933.125,-6.29
9945.3125,-6.27
9957.5,-6.28
9969.6875,-6.26
9981.875,-6.27
9994.0625,-6.31
10006.25,-6.34
10018.4375,-6.39
10030.625,-6.41
10042.8125,-6.46
10055,-6.41
10067.1875,-6.42
10079.375,-6.42
10091.5625,-6.47
10103.75,-6.46
10115.9375,-6.45
10128.125,-6.41
10140.3125,-6.38
10152.5,-6.33
10164.6875,-6.35
10176.875,-6.37
10189.0625,-6.34
10201.25,-6.32
10213.4375,-6.30
10225.625,-6.31
10237.8125,-6.30
10250,-6.30
10262.1875,-6.30
10274.375,-6.32
10286.5625,-6.33
10298.75,-6.34
10310.9375,-6.35
10323.125,-6.35
10335.3125,-6.36
10347.5,-6.38
10359.6875,-6.39
10371.875,-6.39
10384.0625,-6.40
10396.25,-6.41
10408.4375,-6.38
10420.625,-6.38
10432.8125,-6.39
10445,-6.40
10457.1875,-6.40
10469.375,-6.39
10481.5625,-6.42
10493.75,-6.46
10505.9375,-6.48
10518.125,-6.50
10530.3125,-6.49
10542.5,-6.50
10554.6875,-6.54
10566.875,-6.58
10579.0625,-6.61
10591.25,-6.64
10603.4375,-6.63
10615.625,-6.65
10627.8125,-6.64
10640,-6.65
10652.1875,-6.64
10664.375,-6.63
10676.5625,-6.60
10688.75,-6.62
10700.9375,-6.57
10713.125,-6.60
10725.3125,-6.58
10737.5,-6.56
10749.6875,-6.58
10761.875,-6.61
10774.0625,-6.65
10786.25,-6.65
10798.4375,-6.65
10810.625,-6.64
10822.8125,-6.65
10835,-6.67
10847.1875,-6.70
10859.375,-6.68
10871.5625,-6.66
10883.75,-6.63
10895.9375,-6.66
10908.125,-6.69
10920.3125,-6.71
10932.5,-6.71
10944.6875,-6.73
10956.875,-6.75
10969.0625,-6.85
10981.25,-6.89
10993.4375,-6.93
11005.625,-6.93
11017.8125,-6.91
11030,-6.92
11042.1875,-6.93
11054.375,-6.95
11066.5625,-6.91
11078.75,-6.82
11090.9375,-6.74
11103.125,-6.71
11115.3125,-6.69
11127.5,-6.67
11139.6875,-6.69
11151.875,-6.74
11164.0625,-6.81
11176.25,-6.88
11188.4375,-6.98
11200.625,-7.01
11212.8125,-7.08
11225,-7.13
11237.1875,-7.16
11249.375,-7.24
11261.5625,-7.23
11273.75,-7.19
11285.9375,-7.11
11298.125,-7.02
11310.3125,-6.93
11322.5,-6.89
11334.6875,-6.84
11346.875,-6.82
11359.0625,-6.85
11371.25,-6.88
11383.4375,-6.96
11395.625,-7.05
11407.8125,-7.07
11420,-7.12
11432.1875,-7.18
11444.375,-7.27
11456.5625,-7.34
11468.75,-7.36
11480.9375,-7.31
11493.125,-7.25
11505.3125,-7.18
11517.5,-7.13
11529.6875,-7.12
11541.875,-7.06
11554.0625,-7.04
11566.25,-7.02
11578.4375,-7.00
11590.625,-7.06
11602.8125,-7.10
11615,-7.14
11627.1875,-7.18
11639.375,-7.22
11651.5625,-7.29
11663.75,-7.34
11675.9375,-7.37
11688.125,-7.31
11700.3125,-7.22
11712.5,-7.16
11724.6875,-7.08
11736.875,-7.09
11749.0625,-7.07
11761.25,-7.06
11773.4375,-7.02
11785.625,-7.03
11797.8125,-7.08
11810,-7.14
11822.1875,-7.19
11834.375,-7.24
11846.5625,-7.29
11858.75,-7.33
11870.9375,-7.38
11883.125,-7.37
11895.3125,-7.36
11907.5,-7.27
11919.6875,-7.23
11931.875,-7.20
11944.0625,-7.16
11956.25,-7.09
11968.4375,-7.04
11980.625,-7.02
11992.8125,-7.02
12005,-7.05
12017.1875,-7.09
12029.375,-7.12
12041.5625,-7.16
12053.75,-7.25
12065.9375,-7.33
12078.125,-7.37
12090.3125,-7.39
12102.5,-7.37
12114.6875,-7.38
12126.875,-7.37
12139.0625,-7.42
12151.25,-7.42
12163.4375,-7.37
12175.625,-7.30
12187.8125,-7.23
12200,-7.22
12212.1875,-7.24
12224.375,-7.22
12236.5625,-7.21
12248.75,-7.20
12260.9375,-7.19
12273.125,-7.24
12285.3125,-7.25
12297.5,-7.30
12309.6875,-7.30
12321.875,-7.32
12334.0625,-7.37
12346.25,-7.43
12358.4375,-7.50
12370.625,-7.57
12382.8125,-7.57
12395,-7.57
12407.1875,-7.61
12419.375,-7.65
12431.5625,-7.66
12443.75,-7.66
12455.9375,-7.61
12468.125,-7.61
12480.3125,-7.60
12492.5,-7.60
12504.6875,-7.58
12516.875,-7.55
12529.0625,-7.55
12541.25,-7.56
12553.4375,-7.63
12565.625,-7.67
12577.8125,-7.68
12590,-7.66
12602.1875,-7.65
12614.375,-7.64
12626.5625,-7.69
12638.75,-7.70
12650.9375,-7.68
12663.125,-7.62
12675.3125,-7.60
12687.5,-7.60
12699.6875,-7.61
12711.875,-7.60
12724.0625,-7.61
12736.25,-7.64
12748.4375,-7.70
12760.625,-7.80
12772.8125,-7.86
12785,-7.88
12797.1875,-7.84
12809.375,-7.82
12821.5625,-7.85
12833.75,-7.87
12845.9375,-7.87
12858.125,-7.81
12870.3125,-7.73
12882.5,-7.67
12894.6875,-7.62
12906.875,-7.59
12919.0625,-7.58
12931.25,-7.60
12943.4375,-7.64
12955.625,-7.72
12967.8125,-7.82
12980,-7.89
12992.1875,-7.95
13004.375,-7.99
13016.5625,-8.05
13028.75,-8.12
13040.9375,-8.20
13053.125,-8.24
13065.3125,-8.21
13077.5,-8.12
13089.6875,-8.04
13101.875,-7.97
13114.0625,-7.93
13126.25,-7.85
13138.4375,-7.79
13150.625,-7.67
13162.8125,-7.66
13175,-7.61
13187.1875,-7.60
13199.375,-7.58
13211.5625,-7.60
13223.75,-7.62
13235.9375,-7.64
13248.125,-7.68
13260.3125,-7.73
13272.5,-7.73
13284.6875,-7.76
13296.875,-7.76
13309.0625,-7.82
13321.25,-7.83
13333.4375,-7.87
13345.625,-7.80
13357.8125,-7.80
13370,-7.82
13382.1875,-7.86
13394.375,-7.85
13406.5625,-7.82
13418.75,-7.78
13430.9375,-7.74
13443.125,-7.79
13455.3125,-7.80
13467.5,-7.78
13479.6875,-7.74
13491.875,-7.74
13504.0625,-7.73
13516.25,-7.78
13528.4375,-7.80
13540.625,-7.78
13552.8125,-7.80
13565,-7.77
13577.1875,-7.71
13589.375,-7.79
13601.5625,-7.74
13613.75,-7.80
13625.9375,-7.79
13638.125,-7.78
13650.3125,-7.74
13662.5,-7.84
13674.6875,-7.81
13686.875,-7.79
13699.0625,-7.78
13711.25,-7.84
13723.4375,-7.86
13735.625,-7.91
13747.8125,-7.90
13760,-7.85
13772.1875,-7.82
13784.375,-7.75
13796.5625,-7.78
13808.75,-7.78
13820.9375,-7.74
13833.125,-7.68
13845.3125,-7.66
13857.5,-7.65
13869.6875,-7.69
13881.875,-7.66
13894.0625,-7.74
13906.25,-7.78
13918.4375,-7.86
13930.625,-7.98
13942.8125,-8.06
13955,-8.11
13967.1875,-8.12
13979.375,-8.10
13991.5625,-8.07
14003.75,-8.17
14015.9375,-8.14
14028.125,-8.11
14040.3125,-8.02
14052.5,-7.92
14064.6875,-7.84
14076.875,-7.79
14089.0625,-7.77
14101.25,-7.73
14113.4375,-7.71
14125.625,-7.73
14137.8125,-7.74
14150,-7.81
14162.1875,-7.84
14174.375,-7.86
14186.5625,-7.94
14198.75,-7.97
14210.9375,-8.03
14223.125,-8.09
14235.3125,-8.09
14247.5,-8.06
14259.6875,-8.02
14271.875,-8.05
14284.0625,-8.05
14296.25,-8.03
14308.4375,-7.98
14320.625,-7.94
14332.8125,-7.89
14345,-7.91
14357.1875,-7.91
14369.375,-7.95
14381.5625,-7.94
14393.75,-7.89
14405.9375,-7.89
14418.125,-7.95
14430.3125,-8.00
14442.5,-8.00
14454.6875,-7.92
14466.875,-7.93
14479.0625,-7.95
14491.25,-7.90
14503.4375,-7.92
14515.625,-7.91
14527.8125,-7.90
14540,-7.90
14552.1875,-7.94
14564.375,-7.97
14576.5625,-8.01
14588.75,-8.02
14600.9375,-8.10
14613.125,-8.15
14625.3125,-8.28
14637.5,-8.31
14649.6875,-8.28
14661.875,-8.34
14674.0625,-8.36
14686.25,-8.40
14698.4375,-8.44
14710.625,-8.43
14722.8125,-8.37
14735,-8.33
14747.1875,-8.24
14759.375,-8.20
14771.5625,-8.19
14783.75,-8.18
14795.9375,-8.15
14808.125,-8.13
14820.3125,-8.15
14832.5,-8.21
14844.6875,-8.27
14856.875,-8.29
14869.0625,-8.35
14881.25,-8.48
14893.4375,-8.56
14905.625,-8.68
14917.8125,-8.74
14930,-8.71
14942.1875,-8.67
14954.375,-8.63
14966.5625,-8.67
14978.75,-8.67
14990.9375,-8.61
15003.125,-8.56
15015.3125,-8.45
15027.5,-8.33
15039.6875,-8.24
15051.875,-8.20
15064.0625,-8.14
15076.25,-8.11
15088.4375,-8.15
15100.625,-8.14
15112.8125,-8.23
15125,-8.24
15137.1875,-8.30
15149.375,-8.27
15161.5625,-8.29
15173.75,-8.32
15185.9375,-8.35
15198.125,-8.39
15210.3125,-8.36
15222.5,-8.30
15234.6875,-8.20
15246.875,-8.20
15259.0625,-8.16
15271.25,-8.18
15283.4375,-8.18
15295.625,-8.21
15307.8125,-8.24
15320,-8.26
15332.1875,-8.30
15344.375,-8.35
15356.5625,-8.40
15368.75,-8.35
15380.9375,-8.43
15393.125,-8.42
15405.3125,-8.46
15417.5,-8.48
15429.6875,-8.39
15441.875,-8.35
15454.0625,-8.29
15466.25,-8.28
15478.4375,-8.29
15490.625,-8.37
15502.8125,-8.41
15515,-8.49
15527.1875,-8.57
15539.375,-8.63
15551.5625,-8.69
15563.75,-8.72
15575.9375,-8.85
15588.125,-8.94
15600.3125,-9.09
15612.5,-9.12
15624.6875,-9.07
15636.875,-9.01
15649.0625,-8.99
15661.25,-8.98
15673.4375,-8.96
15685.625,-8.97
15697.8125,-8.92
15710,-8.82
15722.1875,-8.79
15734.375,-8.80
15746.5625,-8.80
15758.75,-8.86
15770.9375,-8.87
15783.125,-8.91
15795.3125,-8.98
15807.5,-9.11
15819.6875,-9.18
15831.875,-9.17
15844.0625,-9.14
15856.25,-9.11
15868.4375,-9.08
15880.625,-9.14
15892.8125,-9.14
15905,-9.17
15917.1875,-9.11
15929.375,-9.04
15941.5625,-9.01
15953.75,-9.01
15965.9375,-9.06
15978.125,-9.02
15990.3125,-9.04
16002.5,-9.01
16014.6875,-9.02
16026.875,-9.12
16039.0625,-9.13
16051.25,-9.10
16063.4375,-9.17
16075.625,-9.16
16087.8125,-9.23
16100,-9.25
16112.1875,-9.27
16124.375,-9.26
16136.5625,-9.26
16148.75,-9.27
16160.9375,-9.29
16173.125,-9.27
16185.3125,-9.28
16197.5,-9.24
16209.6875,-9.29
16221.875,-9.34
16234.0625,-9.36
16246.25,-9.34
16258.4375,-9.39
16270.625,-9.43
16282.8125,-9.51
16295,-9.61
16307.1875,-9.71
16319.375,-9.73
16331.5625,-9.72
16343.75,-9.77
16355.9375,-9.83
16368.125,-9.91
16380.3125,-9.91
16392.5,-9.86
16404.6875,-9.75
16416.875,-9.72
16429.0625,-9.65
16441.25,-9.63
16453.4375,-9.61
16465.625,-9.60
16477.8125,-9.55
16490,-9.59
16502.1875,-9.65
16514.375,-9.78
16526.5625,-9.86
16538.75,-9.93
16550.9375,-10.02
16563.125,-10.09
16575.3125,-10.22
16587.5,-10.27
16599.6875,-10.28
16611.875,-10.27
16624.0625,-10.29
16636.25,-10.32
16648.4375,-10.29
16660.625,-10.30
16672.8125,-10.26
16685,-10.20
16697.1875,-10.18
16709.375,-10.19
16721.5625,-10.31
16733.75,-10.37
16745.9375,-10.44
16758.125,-10.53
16770.3125,-10.53
16782.5,-10.56
16794.6875,-10.57
16806.875,-10.53
16819.0625,-10.52
16831.25,-10.46
16843.4375,-10.42
16855.625,-10.26
16867.8125,-10.18
16880,-10.10
16892.1875,-10.08
16904.375,-10.11
16916.5625,-10.12
16928.75,-10.22
16940.9375,-10.28
16953.125,-10.35
16965.3125,-10.57
16977.5,-10.77
16989.6875,-10.89
17001.875,-11.01
17014.0625,-11.01
17026.25,-11.01
17038.4375,-11.02
17050.625,-11.07
17062.8125,-11.01
17075,-10.93
17087.1875,-10.75
17099.375,-10.64
17111.5625,-10.52
17123.75,-10.44
17135.9375,-10.39
17148.125,-10.35
17160.3125,-10.33
17172.5,-10.35
17184.6875,-10.39
17196.875,-10.51
17209.0625,-10.56
17221.25,-10.67
17233.4375,-10.72
17245.625,-10.79
17257.8125,-10.90
17270,-10.97
17282.1875,-11.02
17294.375,-11.07
17306.5625,-11.04
17318.75,-11.01
17330.9375,-11.01
17343.125,-10.96
17355.3125,-10.94
17367.5,-10.92
17379.6875,-10.82
17391.875,-10.78
17404.0625,-10.65
17416.25,-10.61
17428.4375,-10.55
17440.625,-10.51
17452.8125,-10.55
17465,-10.53
17477.1875,-10.61
17489.375,-10.62
17501.5625,-10.68
17513.75,-10.75
17525.9375,-10.83
17538.125,-10.87
17550.3125,-11.08
17562.5,-11.11
17574.6875,-11.22
17586.875,-11.32
17599.0625,-11.39
17611.25,-11.41
17623.4375,-11.50
17635.625,-11.37
17647.8125,-11.28
17660,-11.50
17672.1875,-11.48
17684.375,-11.40
17696.5625,-11.39
17708.75,-11.30
17720.9375,-11.26
17733.125,-11.21
17745.3125,-11.18
17757.5,-11.22
17769.6875,-11.14
17781.875,-10.96
17794.0625,-10.75
17806.25,-10.78
17818.4375,-10.70
17830.625,-10.74
17842.8125,-10.73
17855,-10.74
17867.1875,-10.89
17879.375,-11.10
17891.5625,-11.38
17903.75,-11.46
17915.9375,-11.75
17928.125,-11.90
17940.3125,-12.18
17952.5,-12.36
17964.6875,-12.44
17976.875,-12.58
17989.0625,-12.70
18001.25,-12.67
18013.4375,-12.55
18025.625,-12.54
18037.8125,-12.30
18050,-12.04
18062.1875,-11.86
18074.375,-11.63
18086.5625,-11.44
18098.75,-11.32
18110.9375,-11.24
18123.125,-11.31
18135.3125,-11.35
18147.5,-11.57
18159.6875,-11.71
18171.875,-11.93
18184.0625,-11.99
18196.25,-12.18
18208.4375,-12.33
18220.625,-12.41
18232.8125,-12.36
18245,-12.40
18257.1875,-12.33
18269.375,-12.18
18281.5625,-12.08
18293.75,-12.09
18305.9375,-11.96
18318.125,-11.78
18330.3125,-11.88
18342.5,-11.77
18354.6875,-11.80
18366.875,-11.80
18379.0625,-11.85
18391.25,-11.82
18403.4375,-11.85
18415.625,-11.86
18427.8125,-11.94
18440,-11.74
18452.1875,-11.66
18464.375,-11.68
18476.5625,-11.67
18488.75,-11.70
18500.9375,-11.63
18513.125,-11.77
18525.3125,-11.83
18537.5,-11.97
18549.6875,-12.07
18561.875,-12.28
18574.0625,-12.52
18586.25,-12.65
18598.4375,-12.95
18610.625,-13.02
18622.8125,-12.94
18635,-12.93
18647.1875,-12.84
18659.375,-12.80
18671.5625,-12.59
18683.75,-12.45
18695.9375,-12.26
18708.125,-12.11
18720.3125,-11.83
18732.5,-11.73
18744.6875,-11.48
18756.875,-11.51
18769.0625,-11.52
18781.25,-11.51
18793.4375,-11.70
18805.625,-11.80
18817.8125,-11.87
18830,-12.01
18842.1875,-12.19
18854.375,-12.35
18866.5625,-12.57
18878.75,-12.60
18890.9375,-12.62
18903.125,-12.68
18915.3125,-12.66
18927.5,-12.68
18939.6875,-12.61
18951.875,-12.56
18964.0625,-12.55
18976.25,-12.44
18988.4375,-12.31
19000.625,-12.22
19012.8125,-12.08
19025,-11.94
19037.1875,-11.85
19049.375,-11.75
19061.5625,-11.64
19073.75,-11.68
19085.9375,-11.63
19098.125,-11.71
19110.3125,-11.69
19122.5,-11.76
19134.6875,-11.99
19146.875,-12.09
19159.0625,-12.23
19171.25,-12.33
19183.4375,-12.45
19195.625,-12.44
19207.8125,-12.40
19220,-12.58
19232.1875,-12.55
19244.375,-12.64
19256.5625,-12.53
19268.75,-12.52
19280.9375,-12.35
19293.125,-12.23
19305.3125,-12.27
19317.5,-12.24
19329.6875,-12.20
19341.875,-12.20
19354.0625,-12.17
19366.25,-12.14
19378.4375,-12.10
19390.625,-12.04
19402.8125,-12.06
19415,-12.06
19427.1875,-12.11
19439.375,-12.10
19451.5625,-12.03
19463.75,-12.05
19475.9375,-12.07
19488.125,-12.12
19500.3125,-12.27
19512.5,-12.28
19524.6875,-12.41
19536.875,-12.38
19549.0625,-12.44
19561.25,-12.59
19573.4375,-12.69
19585.625,-12.65
19597.8125,-12.75
19610,-12.58
19622.1875,-12.40
19634.375,-12.25
19646.5625,-12.12
19658.75,-12.04
19670.9375,-11.91
19683.125,-11.84
19695.3125,-11.75
19707.5,-11.78
19719.6875,-11.81
19731.875,-11.88
19744.0625,-12.02
19756.25,-12.14
19768.4375,-12.43
19780.625,-12.55
19792.8125,-12.80
19805,-12.72
19817.1875,-12.98
19829.375,-12.92
19841.5625,-12.88
19853.75,-12.79
19865.9375,-12.79
19878.125,-12.84
19890.3125,-12.75
19902.5,-12.58
19914.6875,-12.49
19926.875,-12.49
19939.0625,-12.41
19951.25,-12.42
19963.4375,-12.43
19975.625,-12.41
19987.8125,-12.48
20000,-12.66
