Freq(MHz),Loss
500,-86.74
512.1875,-85.72
524.375,-85.05
536.5625,-85.17
548.75,-81.53
560.9375,-82.70
573.125,-81.63
585.3125,-81.71
597.5,-80.86
609.6875,-78.48
621.875,-84.23
634.0625,-81.13
646.25,-82.51
658.4375,-88.35
670.625,-74.65
682.8125,-89.75
695,-78.84
707.1875,-75.64
719.375,-87.62
731.5625,-79.91
743.75,-86.58
755.9375,-79.48
768.125,-86.15
780.3125,-76.25
792.5,-77.97
804.6875,-79.19
816.875,-78.16
829.0625,-75.95
841.25,-75.78
853.4375,-72.36
865.625,-72.98
877.8125,-67.86
890,-65.63
902.1875,-61.20
914.375,-60.06
926.5625,-56.30
938.75,-53.77
950.9375,-51.24
963.125,-48.24
975.3125,-45.36
987.5,-42.48
999.6875,-39.41
1011.875,-36.44
1024.0625,-33.07
1036.25,-29.70
1048.4375,-26.03
1060.625,-22.27
1072.8125,-18.42
1085,-14.60
1097.1875,-11.00
1109.375,-7.97
1121.5625,-5.82
1133.75,-4.60
1145.9375,-4.04
1158.125,-3.79
1170.3125,-3.66
1182.5,-3.59
1194.6875,-3.55
1206.875,-3.53
1219.0625,-3.52
1231.25,-3.52
1243.4375,-3.51
1255.625,-3.48
1267.8125,-3.45
1280,-3.41
1292.1875,-3.39
1304.375,-3.37
1316.5625,-3.36
1328.75,-3.34
1340.9375,-3.34
1353.125,-3.34
1365.3125,-3.37
1377.5,-3.41
1389.6875,-3.44
1401.875,-3.46
1414.0625,-3.47
1426.25,-3.45
1438.4375,-3.42
1450.625,-3.38
1462.8125,-3.35
1475,-3.32
1487.1875,-3.29
1499.375,-3.26
1511.5625,-3.24
1523.75,-3.24
1535.9375,-3.24
1548.125,-3.25
1560.3125,-3.28
1572.5,-3.30
1584.6875,-3.30
1596.875,-3.28
1609.0625,-3.25
1621.25,-3.22
1633.4375,-3.20
1645.625,-3.19
1657.8125,-3.19
1670,-3.18
1682.1875,-3.18
1694.375,-3.18
1706.5625,-3.18
1718.75,-3.18
1730.9375,-3.17
1743.125,-3.17
1755.3125,-3.17
1767.5,-3.17
1779.6875,-3.17
1791.875,-3.17
1804.0625,-3.17
1816.25,-3.17
1828.4375,-3.17
1840.625,-3.17
1852.8125,-3.18
1865,-3.19
1877.1875,-3.20
1889.375,-3.20
1901.5625,-3.20
1913.75,-3.20
1925.9375,-3.19
1938.125,-3.19
1950.3125,-3.19
1962.5,-3.19
1974.6875,-3.20
1986.875,-3.21
1999.0625,-3.21
2011.25,-3.21
2023.4375,-3.21
2035.625,-3.22
2047.8125,-3.22
2060,-3.23
2072.1875,-3.24
2084.375,-3.24
2096.5625,-3.25
2108.75,-3.25
2120.9375,-3.26
2133.125,-3.26
2145.3125,-3.27
2157.5,-3.28
2169.6875,-3.28
2181.875,-3.29
2194.0625,-3.30
2206.25,-3.31
2218.4375,-3.32
2230.625,-3.32
2242.8125,-3.33
2255,-3.34
2267.1875,-3.35
2279.375,-3.37
2291.5625,-3.38
2303.75,-3.38
2315.9375,-3.37
2328.125,-3.38
2340.3125,-3.39
2352.5,-3.40
2364.6875,-3.41
2376.875,-3.42
2389.0625,-3.43
2401.25,-3.44
2413.4375,-3.44
2425.625,-3.45
2437.8125,-3.47
2450,-3.50
2462.1875,-3.52
2474.375,-3.53
2486.5625,-3.54
2498.75,-3.53
2510.9375,-3.52
2523.125,-3.53
2535.3125,-3.54
2547.5,-3.55
2559.6875,-3.57
2571.875,-3.57
2584.0625,-3.57
2596.25,-3.57
2608.4375,-3.56
2620.625,-3.57
2632.8125,-3.58
2645,-3.61
2657.1875,-3.65
2669.375,-3.68
2681.5625,-3.69
2693.75,-3.68
2705.9375,-3.66
2718.125,-3.65
2730.3125,-3.65
2742.5,-3.66
2754.6875,-3.67
2766.875,-3.68
2779.0625,-3.67
2791.25,-3.67
2803.4375,-3.67
2815.625,-3.67
2827.8125,-3.69
2840,-3.73
2852.1875,-3.77
2864.375,-3.81
2876.5625,-3.83
2888.75,-3.81
2900.9375,-3.78
2913.125,-3.76
2925.3125,-3.75
2937.5,-3.75
2949.6875,-3.75
2961.875,-3.74
2974.0625,-3.71
2986.25,-3.69
2998.4375,-3.69
3010.625,-3.68
3022.8125,-3.69
3035,-3.71
3047.1875,-3.75
3059.375,-3.79
3071.5625,-3.84
3083.75,-3.85
3095.9375,-3.84
3108.125,-3.82
3120.3125,-3.81
3132.5,-3.82
3144.6875,-3.83
3156.875,-3.83
3169.0625,-3.81
3181.25,-3.79
3193.4375,-3.78
3205.625,-3.79
3217.8125,-3.80
3230,-3.81
3242.1875,-3.83
3254.375,-3.87
3266.5625,-3.91
3278.75,-3.93
3290.9375,-3.92
3303.125,-3.90
3315.3125,-3.89
3327.5,-3.89
3339.6875,-3.91
3351.875,-3.92
3364.0625,-3.91
3376.25,-3.90
3388.4375,-3.90
3400.625,-3.92
3412.8125,-3.94
3425,-3.94
3437.1875,-3.95
3449.375,-3.95
3461.5625,-3.97
3473.75,-3.98
3485.9375,-3.98
3498.125,-3.98
3510.3125,-3.98
3522.5,-4.00
3534.6875,-4.03
3546.875,-4.05
3559.0625,-4.06
3571.25,-4.07
3583.4375,-4.11
3595.625,-4.16
3607.8125,-4.20
3620,-4.22
3632.1875,-4.19
3644.375,-4.16
3656.5625,-4.13
3668.75,-4.13
3680.9375,-4.13
3693.125,-4.13
3705.3125,-4.12
3717.5,-4.12
3729.6875,-4.14
3741.875,-4.17
3754.0625,-4.20
3766.25,-4.22
3778.4375,-4.25
3790.625,-4.30
3802.8125,-4.35
3815,-4.37
3827.1875,-4.35
3839.375,-4.29
3851.5625,-4.23
3863.75,-4.19
3875.9375,-4.17
3888.125,-4.17
3900.3125,-4.17
3912.5,-4.19
3924.6875,-4.24
3936.875,-4.32
3949.0625,-4.39
3961.25,-4.45
3973.4375,-4.50
3985.625,-4.56
3997.8125,-4.64
4010,-4.69
4022.1875,-4.70
4034.375,-4.64
4046.5625,-4.55
4058.75,-4.45
4070.9375,-4.38
4083.125,-4.35
4095.3125,-4.33
4107.5,-4.33
4119.6875,-4.35
4131.875,-4.40
4144.0625,-4.47
4156.25,-4.53
4168.4375,-4.59
4180.625,-4.64
4192.8125,-4.69
4205,-4.74
4217.1875,-4.75
4229.375,-4.71
4241.5625,-4.63
4253.75,-4.55
4265.9375,-4.47
4278.125,-4.42
4290.3125,-4.39
4302.5,-4.39
4314.6875,-4.41
4326.875,-4.47
4339.0625,-4.55
4351.25,-4.62
4363.4375,-4.67
4375.625,-4.71
4387.8125,-4.74
4400,-4.77
4412.1875,-4.79
4424.375,-4.76
4436.5625,-4.69
4448.75,-4.62
4460.9375,-4.54
4473.125,-4.49
4485.3125,-4.47
4497.5,-4.47
4509.6875,-4.49
4521.875,-4.53
4534.0625,-4.61
4546.25,-4.69
4558.4375,-4.77
4570.625,-4.82
4582.8125,-4.85
4595,-4.86
4607.1875,-4.88
4619.375,-4.88
4631.5625,-4.85
4643.75,-4.81
4655.9375,-4.75
4668.125,-4.69
4680.3125,-4.67
4692.5,-4.66
4704.6875,-4.66
4716.875,-4.67
4729.0625,-4.68
4741.25,-4.69
4753.4375,-4.70
4765.625,-4.72
4777.8125,-4.71
4790,-4.69
4802.1875,-4.67
4814.375,-4.67
4826.5625,-4.68
4838.75,-4.69
4850.9375,-4.73
4863.125,-4.78
4875.3125,-4.85
4887.5,-4.94
4899.6875,-5.02
4911.875,-5.08
4924.0625,-5.12
4936.25,-5.12
4948.4375,-5.13
4960.625,-5.11
4972.8125,-5.07
4985,-5.00
4997.1875,-4.92
5009.375,-4.83
5021.5625,-4.77
5033.75,-4.75
5045.9375,-4.77
5058.125,-4.81
5070.3125,-4.86
5082.5,-4.96
5094.6875,-5.06
5106.875,-5.16
5119.0625,-5.22
5131.25,-5.22
5143.4375,-5.19
5155.625,-5.12
5167.8125,-5.06
5180,-5.00
5192.1875,-4.94
5204.375,-4.87
5216.5625,-4.83
5228.75,-4.86
5240.9375,-4.93
5253.125,-5.05
5265.3125,-5.19
5277.5,-5.34
5289.6875,-5.48
5301.875,-5.62
5314.0625,-5.73
5326.25,-5.77
5338.4375,-5.74
5350.625,-5.66
5362.8125,-5.53
5375,-5.40
5387.1875,-5.27
5399.375,-5.17
5411.5625,-5.08
5423.75,-5.03
5435.9375,-5.05
5448.125,-5.14
5460.3125,-5.27
5472.5,-5.43
5484.6875,-5.60
5496.875,-5.78
5509.0625,-5.94
5521.25,-6.03
5533.4375,-6.04
5545.625,-5.98
5557.8125,-5.86
5570,-5.71
5582.1875,-5.57
5594.375,-5.44
5606.5625,-5.31
5618.75,-5.19
5630.9375,-5.13
5643.125,-5.16
5655.3125,-5.22
5667.5,-5.32
5679.6875,-5.41
5691.875,-5.51
5704.0625,-5.64
5716.25,-5.76
5728.4375,-5.82
5740.625,-5.79
5752.8125,-5.68
5765,-5.55
5777.1875,-5.41
5789.375,-5.31
5801.5625,-5.22
5813.75,-5.15
5825.9375,-5.11
5838.125,-5.12
5850.3125,-5.20
5862.5,-5.30
5874.6875,-5.40
5886.875,-5.48
5899.0625,-5.56
5911.25,-5.64
5923.4375,-5.72
5935.625,-5.76
5947.8125,-5.71
5960,-5.61
5972.1875,-5.47
5984.375,-5.34
5996.5625,-5.27
6008.75,-5.21
6020.9375,-5.18
6033.125,-5.17
6045.3125,-5.20
6057.5,-5.27
6069.6875,-5.35
6081.875,-5.41
6094.0625,-5.44
6106.25,-5.47
6118.4375,-5.51
6130.625,-5.53
6142.8125,-5.51
6155,-5.44
6167.1875,-5.35
6179.375,-5.29
6191.5625,-5.29
6203.75,-5.30
6215.9375,-5.33
6228.125,-5.36
6240.3125,-5.42
6252.5,-5.53
6264.6875,-5.65
6276.875,-5.72
6289.0625,-5.72
6301.25,-5.68
6313.4375,-5.66
6325.625,-5.65
6337.8125,-5.66
6350,-5.60
6362.1875,-5.51
6374.375,-5.42
6386.5625,-5.38
6398.75,-5.41
6410.9375,-5.46
6423.125,-5.49
6435.3125,-5.52
6447.5,-5.59
6459.6875,-5.69
6471.875,-5.79
6484.0625,-5.84
6496.25,-5.82
6508.4375,-5.75
6520.625,-5.70
6532.8125,-5.69
6545,-5.67
6557.1875,-5.63
6569.375,-5.57
6581.5625,-5.55
6593.75,-5.59
6605.9375,-5.65
6618.125,-5.72
6630.3125,-5.75
6642.5,-5.78
6654.6875,-5.84
6666.875,-5.92
6679.0625,-5.99
6691.25,-5.98
6703.4375,-5.90
6715.625,-5.79
6727.8125,-5.70
6740,-5.66
6752.1875,-5.62
6764.375,-5.57
6776.5625,-5.55
6788.75,-5.55
6800.9375,-5.62
6813.125,-5.72
6825.3125,-5.77
6837.5,-5.80
6849.6875,-5.83
6861.875,-5.90
6874.0625,-6.01
6886.25,-6.06
6898.4375,-6.03
6910.625,-5.92
6922.8125,-5.80
6935,-5.73
6947.1875,-5.69
6959.375,-5.68
6971.5625,-5.64
6983.75,-5.61
6995.9375,-5.64
7008.125,-5.71
7020.3125,-5.79
7032.5,-5.82
7044.6875,-5.82
7056.875,-5.81
7069.0625,-5.84
7081.25,-5.89
7093.4375,-5.91
7105.625,-5.87
7117.8125,-5.78
7130,-5.69
7142.1875,-5.64
7154.375,-5.64
7166.5625,-5.63
7178.75,-5.63
7190.9375,-5.66
7203.125,-5.75
7215.3125,-5.86
7227.5,-5.93
7239.6875,-5.95
7251.875,-5.94
7264.0625,-5.93
7276.25,-5.97
7288.4375,-6.01
7300.625,-6.01
7312.8125,-5.93
7325,-5.83
7337.1875,-5.75
7349.375,-5.74
7361.5625,-5.75
7373.75,-5.76
7385.9375,-5.76
7398.125,-5.79
7410.3125,-5.86
7422.5,-5.95
7434.6875,-5.99
7446.875,-5.99
7459.0625,-5.94
7471.25,-5.92
7483.4375,-5.93
7495.625,-5.94
7507.8125,-5.92
7520,-5.86
7532.1875,-5.81
7544.375,-5.80
7556.5625,-5.83
7568.75,-5.88
7580.9375,-5.90
7593.125,-5.96
7605.3125,-6.05
7617.5,-6.19
7629.6875,-6.29
7641.875,-6.33
7654.0625,-6.28
7666.25,-6.21
7678.4375,-6.16
7690.625,-6.15
7702.8125,-6.15
7715,-6.09
7727.1875,-6.01
7739.375,-5.92
7751.5625,-5.87
7763.75,-5.87
7775.9375,-5.87
7788.125,-5.90
7800.3125,-5.95
7812.5,-6.05
7824.6875,-6.17
7836.875,-6.26
7849.0625,-6.25
7861.25,-6.20
7873.4375,-6.15
7885.625,-6.15
7897.8125,-6.18
7910,-6.18
7922.1875,-6.12
7934.375,-6.04
7946.5625,-5.97
7958.75,-5.97
7970.9375,-5.99
7983.125,-6.01
7995.3125,-6.00
8007.5,-6.01
8019.6875,-6.06
8031.875,-6.13
8044.0625,-6.17
8056.25,-6.16
8068.4375,-6.11
8080.625,-6.07
8092.8125,-6.05
8105,-6.04
8117.1875,-6.02
8129.375,-5.97
8141.5625,-5.93
8153.75,-5.92
8165.9375,-5.96
8178.125,-5.99
8190.3125,-6.01
8202.5,-6.03
8214.6875,-6.10
8226.875,-6.23
8239.0625,-6.35
8251.25,-6.41
8263.4375,-6.38
8275.625,-6.33
8287.8125,-6.30
8300,-6.32
8312.1875,-6.34
8324.375,-6.31
8336.5625,-6.23
8348.75,-6.12
8360.9375,-6.04
8373.125,-6.01
8385.3125,-6.00
8397.5,-6.00
8409.6875,-6.00
8421.875,-6.02
8434.0625,-6.07
8446.25,-6.10
8458.4375,-6.12
8470.625,-6.12
8482.8125,-6.12
8495,-6.17
8507.1875,-6.23
8519.375,-6.26
8531.5625,-6.27
8543.75,-6.24
8555.9375,-6.22
8568.125,-6.24
8580.3125,-6.29
8592.5,-6.30
8604.6875,-6.28
8616.875,-6.27
8629.0625,-6.27
8641.25,-6.29
8653.4375,-6.29
8665.625,-6.27
8677.8125,-6.22
8690,-6.18
8702.1875,-6.18
8714.375,-6.18
8726.5625,-6.18
8738.75,-6.18
8750.9375,-6.18
8763.125,-6.22
8775.3125,-6.30
8787.5,-6.34
8799.6875,-6.34
8811.875,-6.35
8824.0625,-6.37
8836.25,-6.43
8848.4375,-6.51
8860.625,-6.53
8872.8125,-6.48
8885,-6.39
8897.1875,-6.32
8909.375,-6.32
8921.5625,-6.32
8933.75,-6.32
8945.9375,-6.28
8958.125,-6.23
8970.3125,-6.21
8982.5,-6.19
8994.6875,-6.19
9006.875,-6.20
9019.0625,-6.19
9031.25,-6.16
9043.4375,-6.18
9055.625,-6.19
9067.8125,-6.19
9080,-6.20
9092.1875,-6.19
9104.375,-6.21
9116.5625,-6.25
9128.75,-6.26
9140.9375,-6.28
9153.125,-6.30
9165.3125,-6.38
9177.5,-6.46
9189.6875,-6.54
9201.875,-6.54
9214.0625,-6.52
9226.25,-6.50
9238.4375,-6.50
9250.625,-6.53
9262.8125,-6.57
9275,-6.53
9287.1875,-6.46
9299.375,-6.37
9311.5625,-6.32
9323.75,-6.32
9335.9375,-6.33
9348.125,-6.38
9360.3125,-6.39
9372.5,-6.45
9384.6875,-6.51
9396.875,-6.51
9409.0625,-6.51
9421.25,-6.52
9433.4375,-6.57
9445.625,-6.62
9457.8125,-6.68
9470,-6.70
9482.1875,-6.64
9494.375,-6.54
9506.5625,-6.50
9518.75,-6.50
9530.9375,-6.50
9543.125,-6.51
9555.3125,-6.47
9567.5,-6.46
9579.6875,-6.46
9591.875,-6.45
9604.0625,-6.46
9616.25,-6.44
9628.4375,-6.43
9640.625,-6.48
9652.8125,-6.53
9665,-6.56
9677.1875,-6.56
9689.375,-6.53
9701.5625,-6.51
9713.75,-6.48
9725.9375,-6.50
9738.125,-6.52
9750.3125,-6.52
9762.5,-6.53
9774.6875,-6.56
9786.875,-6.54
9799.0625,-6.54
9811.25,-6.53
9823.4375,-6.55
9835.625,-6.51
9847.8125,-6.56
9860,-6.58
9872.1875,-6.59
9884.375,-6.56
9896.5625,-6.53
9908.75,-6.50
9920.9375,-6.47
9933.125,-6.48
9945.3125,-6.52
9957.5,-6.50
9969.6875,-6.49
9981.875,-6.48
9994.0625,-6.50
10006.25,-6.49
10018.4375,-6.52
10030.625,-6.52
10042.8125,-6.58
10055,-6.64
10067.1875,-6.69
10079.375,-6.67
10091.5625,-6.70
10103.75,-6.66
10115.9375,-6.70
10128.125,-6.75
10140.3125,-6.76
10152.5,-6.75
10164.6875,-6.70
10176.875,-6.67
10189.0625,-6.61
10201.25,-6.61
10213.4375,-6.59
10225.625,-6.62
10237.8125,-6.61
10250,-6.62
10262.1875,-6.63
10274.375,-6.63
10286.5625,-6.64
10298.75,-6.65
10310.9375,-6.71
10323.125,-6.75
10335.3125,-6.79
10347.5,-6.80
10359.6875,-6.75
10371.875,-6.71
10384.0625,-6.70
10396.25,-6.71
10408.4375,-6.70
10420.625,-6.68
10432.8125,-6.71
10445,-6.73
10457.1875,-6.77
10469.375,-6.77
10481.5625,-6.79
10493.75,-6.84
10505.9375,-6.87
10518.125,-6.96
10530.3125,-7.02
10542.5,-7.04
10554.6875,-7.03
10566.875,-6.97
10579.0625,-6.94
10591.25,-6.94
10603.4375,-6.93
10615.625,-6.94
10627.8125,-6.89
10640,-6.89
10652.1875,-6.89
10664.375,-6.90
10676.5625,-6.95
10688.75,-6.97
10700.9375,-6.98
10713.125,-7.02
10725.3125,-7.06
10737.5,-7.10
10749.6875,-7.10
10761.875,-7.07
10774.0625,-7.02
10786.25,-6.94
10798.4375,-6.92
10810.625,-6.91
10822.8125,-6.90
10835,-6.88
10847.1875,-6.89
10859.375,-6.94
10871.5625,-6.98
10883.75,-7.01
10895.9375,-7.06
10908.125,-7.13
10920.3125,-7.19
10932.5,-7.27
10944.6875,-7.30
10956.875,-7.29
10969.0625,-7.25
10981.25,-7.18
10993.4375,-7.12
11005.625,-7.07
11017.8125,-7.04
11030,-7.01
11042.1875,-6.95
11054.375,-6.95
11066.5625,-6.97
11078.75,-7.02
11090.9375,-7.02
11103.125,-7.05
11115.3125,-7.04
11127.5,-7.09
11139.6875,-7.17
11151.875,-7.18
11164.0625,-7.17
11176.25,-7.12
11188.4375,-7.07
11200.625,-7.09
11212.8125,-7.10
11225,-7.13
11237.1875,-7.09
11249.375,-7.10
11261.5625,-7.14
11273.75,-7.18
11285.9375,-7.26
11298.125,-7.25
11310.3125,-7.25
11322.5,-7.21
11334.6875,-7.21
11346.875,-7.17
11359.0625,-7.17
11371.25,-7.15
11383.4375,-7.11
11395.625,-7.10
11407.8125,-7.11
11420,-7.17
11432.1875,-7.21
11444.375,-7.25
11456.5625,-7.33
11468.75,-7.43
11480.9375,-7.52
11493.125,-7.56
11505.3125,-7.60
11517.5,-7.59
11529.6875,-7.55
11541.875,-7.50
11554.0625,-7.45
11566.25,-7.43
11578.4375,-7.38
11590.625,-7.35
11602.8125,-7.30
11615,-7.33
11627.1875,-7.35
11639.375,-7.40
11651.5625,-7.47
11663.75,-7.53
11675.9375,-7.65
11688.125,-7.73
11700.3125,-7.78
11712.5,-7.73
11724.6875,-7.66
11736.875,-7.63
11749.0625,-7.54
11761.25,-7.49
11773.4375,-7.45
11785.625,-7.41
11797.8125,-7.39
11810,-7.42
11822.1875,-7.44
11834.375,-7.54
11846.5625,-7.59
11858.75,-7.67
11870.9375,-7.75
11883.125,-7.83
11895.3125,-7.90
11907.5,-7.88
11919.6875,-7.84
11931.875,-7.76
11944.0625,-7.64
11956.25,-7.56
11968.4375,-7.50
11980.625,-7.45
11992.8125,-7.39
12005,-7.42
12017.1875,-7.45
12029.375,-7.51
12041.5625,-7.60
12053.75,-7.72
12065.9375,-7.83
12078.125,-7.92
12090.3125,-8.02
12102.5,-8.07
12114.6875,-8.03
12126.875,-7.94
12139.0625,-7.89
12151.25,-7.80
12163.4375,-7.71
12175.625,-7.64
12187.8125,-7.56
12200,-7.53
12212.1875,-7.51
12224.375,-7.52
12236.5625,-7.60
12248.75,-7.62
12260.9375,-7.64
12273.125,-7.69
12285.3125,-7.75
12297.5,-7.81
12309.6875,-7.82
12321.875,-7.78
12334.0625,-7.72
12346.25,-7.67
12358.4375,-7.68
12370.625,-7.69
12382.8125,-7.71
12395,-7.75
12407.1875,-7.79
12419.375,-7.91
12431.5625,-8.03
12443.75,-8.13
12455.9375,-8.13
12468.125,-8.19
12480.3125,-8.20
12492.5,-8.19
12504.6875,-8.17
12516.875,-8.12
12529.0625,-8.03
12541.25,-7.91
12553.4375,-7.87
12565.625,-7.82
12577.8125,-7.78
12590,-7.80
12602.1875,-7.85
12614.375,-7.90
12626.5625,-8.01
12638.75,-8.10
12650.9375,-8.15
12663.125,-8.19
12675.3125,-8.17
12687.5,-8.15
12699.6875,-8.15
12711.875,-8.12
12724.0625,-8.07
12736.25,-8.00
12748.4375,-7.98
12760.625,-7.99
12772.8125,-8.03
12785,-8.07
12797.1875,-8.09
12809.375,-8.13
12821.5625,-8.25
12833.75,-8.33
12845.9375,-8.44
12858.125,-8.41
12870.3125,-8.39
12882.5,-8.30
12894.6875,-8.23
12906.875,-8.15
12919.0625,-8.11
12931.25,-8.05
12943.4375,-8.02
12955.625,-8.04
12967.8125,-8.09
12980,-8.19
12992.1875,-8.30
13004.375,-8.39
13016.5625,-8.51
13028.75,-8.65
13040.9375,-8.80
13053.125,-8.88
13065.3125,-8.90
13077.5,-8.84
13089.6875,-8.71
13101.875,-8.58
13114.0625,-8.47
13126.25,-8.34
13138.4375,-8.27
13150.625,-8.11
13162.8125,-8.03
13175,-7.96
13187.1875,-7.98
13199.375,-8.00
13211.5625,-8.04
13223.75,-8.07
13235.9375,-8.18
13248.125,-8.31
13260.3125,-8.33
13272.5,-8.29
13284.6875,-8.27
13296.875,-8.19
13309.0625,-8.19
13321.25,-8.17
13333.4375,-8.18
13345.625,-8.19
13357.8125,-8.17
13370,-8.25
13382.1875,-8.37
13394.375,-8.40
13406.5625,-8.45
13418.75,-8.44
13430.9375,-8.41
13443.125,-8.43
13455.3125,-8.44
13467.5,-8.35
13479.6875,-8.30
13491.875,-8.22
13504.0625,-8.14
13516.25,-8.08
13528.4375,-8.09
13540.625,-8.14
13552.8125,-8.21
13565,-8.35
13577.1875,-8.44
13589.375,-8.62
13601.5625,-8.66
13613.75,-8.73
13625.9375,-8.72
13638.125,-8.70
13650.3125,-8.63
13662.5,-8.67
13674.6875,-8.61
13686.875,-8.53
13699.0625,-8.49
13711.25,-8.48
13723.4375,-8.48
13735.625,-8.54
13747.8125,-8.67
13760,-8.83
13772.1875,-9.06
13784.375,-9.22
13796.5625,-9.35
13808.75,-9.46
13820.9375,-9.48
13833.125,-9.43
13845.3125,-9.42
13857.5,-9.32
13869.6875,-9.33
13881.875,-9.29
13894.0625,-9.34
13906.25,-9.31
13918.4375,-9.43
13930.625,-9.63
13942.8125,-9.93
13955,-10.26
13967.1875,-10.67
13979.375,-11.03
13991.5625,-11.30
14003.75,-11.45
14015.9375,-11.56
14028.125,-11.54
14040.3125,-11.56
14052.5,-11.44
14064.6875,-11.34
14076.875,-11.23
14089.0625,-11.02
14101.25,-10.85
14113.4375,-10.70
14125.625,-10.69
14137.8125,-10.86
14150,-11.21
14162.1875,-11.60
14174.375,-12.07
14186.5625,-12.47
14198.75,-12.74
14210.9375,-12.90
14223.125,-13.02
14235.3125,-13.08
14247.5,-13.09
14259.6875,-13.09
14271.875,-13.04
14284.0625,-12.75
14296.25,-12.42
14308.4375,-12.07
14320.625,-11.86
14332.8125,-11.80
14345,-12.00
14357.1875,-12.30
14369.375,-12.75
14381.5625,-13.18
14393.75,-13.51
14405.9375,-13.68
14418.125,-13.86
14430.3125,-13.84
14442.5,-13.84
14454.6875,-13.82
14466.875,-13.72
14479.0625,-13.59
14491.25,-13.28
14503.4375,-12.95
14515.625,-12.60
14527.8125,-12.39
14540,-12.30
14552.1875,-12.41
14564.375,-12.54
14576.5625,-12.76
14588.75,-12.85
14600.9375,-13.02
14613.125,-13.39
14625.3125,-14.10
14637.5,-15.19
14649.6875,-16.62
14661.875,-18.45
14674.0625,-20.37
14686.25,-22.26
14698.4375,-23.91
14710.625,-25.57
14722.8125,-27.16
14735,-28.64
14747.1875,-30.55
14759.375,-32.46
14771.5625,-34.65
14783.75,-37.39
14795.9375,-41.04
14808.125,-43.02
14820.3125,-47.31
14832.5,-50.37
14844.6875,-53.38
14856.875,-53.41
14869.0625,-56.10
14881.25,-55.69
14893.4375,-56.27
14905.625,-53.49
14917.8125,-50.42
14930,-49.29
14942.1875,-47.55
14954.375,-45.44
14966.5625,-42.21
14978.75,-40.61
14990.9375,-39.04
15003.125,-37.28
15015.3125,-35.92
15027.5,-34.73
15039.6875,-33.87
15051.875,-33.09
15064.0625,-32.44
15076.25,-31.92
15088.4375,-31.20
15100.625,-30.28
15112.8125,-29.36
15125,-28.12
15137.1875,-27.04
15149.375,-25.93
15161.5625,-25.01
15173.75,-24.10
15185.9375,-23.35
15198.125,-22.72
15210.3125,-22.22
15222.5,-21.76
15234.6875,-21.36
15246.875,-20.99
15259.0625,-20.71
15271.25,-20.51
15283.4375,-20.10
15295.625,-19.71
15307.8125,-18.99
15320,-18.07
15332.1875,-17.12
15344.375,-16.16
15356.5625,-15.40
15368.75,-14.60
15380.9375,-13.96
15393.125,-13.40
15405.3125,-12.92
15417.5,-12.48
15429.6875,-12.06
15441.875,-11.77
15454.0625,-11.52
15466.25,-11.25
15478.4375,-11.02
15490.625,-10.78
15502.8125,-10.48
15515,-10.35
15527.1875,-10.24
15539.375,-10.18
15551.5625,-10.22
15563.75,-10.16
15575.9375,-10.21
15588.125,-10.24
15600.3125,-10.28
15612.5,-10.34
15624.6875,-10.36
15636.875,-10.49
15649.0625,-10.68
15661.25,-11.01
15673.4375,-11.45
15685.625,-12.03
15697.8125,-12.64
15710,-13.29
15722.1875,-13.82
15734.375,-14.23
15746.5625,-14.41
15758.75,-14.46
15770.9375,-14.40
15783.125,-14.32
15795.3125,-14.26
15807.5,-14.20
15819.6875,-14.18
15831.875,-14.14
15844.0625,-14.14
15856.25,-14.36
15868.4375,-14.71
15880.625,-15.33
15892.8125,-16.01
15905,-16.68
15917.1875,-17.33
15929.375,-17.72
15941.5625,-17.95
15953.75,-18.08
15965.9375,-17.99
15978.125,-17.84
15990.3125,-17.69
16002.5,-17.44
16014.6875,-17.28
16026.875,-16.98
16039.0625,-16.88
16051.25,-16.80
16063.4375,-16.94
16075.625,-17.21
16087.8125,-17.75
16100,-18.44
16112.1875,-19.09
16124.375,-19.74
16136.5625,-20.16
16148.75,-20.40
16160.9375,-20.47
16173.125,-20.32
16185.3125,-20.09
16197.5,-19.84
16209.6875,-19.57
16221.875,-19.23
16234.0625,-18.84
16246.25,-18.55
16258.4375,-18.41
16270.625,-18.59
16282.8125,-19.00
16295,-19.65
16307.1875,-20.42
16319.375,-21.17
16331.5625,-21.78
16343.75,-22.32
16355.9375,-22.51
16368.125,-22.75
16380.3125,-22.63
16392.5,-22.41
16404.6875,-22.16
16416.875,-21.84
16429.0625,-21.51
16441.25,-21.12
16453.4375,-20.66
16465.625,-20.33
16477.8125,-20.21
16490,-20.34
16502.1875,-20.92
16514.375,-21.59
16526.5625,-22.28
16538.75,-22.83
16550.9375,-23.28
16563.125,-23.45
16575.3125,-23.71
16587.5,-23.67
16599.6875,-23.61
16611.875,-23.41
16624.0625,-23.08
16636.25,-22.57
16648.4375,-21.98
16660.625,-21.30
16672.8125,-20.68
16685,-20.19
16697.1875,-20.11
16709.375,-20.38
16721.5625,-21.09
16733.75,-21.87
16745.9375,-22.46
16758.125,-23.11
16770.3125,-23.38
16782.5,-23.57
16794.6875,-23.64
16806.875,-23.68
16819.0625,-23.54
16831.25,-23.37
16843.4375,-22.97
16855.625,-22.34
16867.8125,-21.65
16880,-20.97
16892.1875,-20.53
16904.375,-20.40
16916.5625,-20.67
16928.75,-21.30
16940.9375,-21.99
16953.125,-22.60
16965.3125,-23.25
16977.5,-23.65
16989.6875,-23.90
17001.875,-24.13
17014.0625,-24.15
17026.25,-24.18
17038.4375,-23.92
17050.625,-23.61
17062.8125,-23.07
17075,-22.30
17087.1875,-21.53
17099.375,-20.82
17111.5625,-20.15
17123.75,-19.82
17135.9375,-19.93
17148.125,-20.22
17160.3125,-20.71
17172.5,-21.28
17184.6875,-21.58
17196.875,-21.93
17209.0625,-22.21
17221.25,-22.25
17233.4375,-22.20
17245.625,-22.04
17257.8125,-21.63
17270,-21.12
17282.1875,-20.44
17294.375,-19.69
17306.5625,-18.91
17318.75,-18.33
17330.9375,-17.94
17343.125,-17.97
17355.3125,-18.34
17367.5,-18.81
17379.6875,-19.30
17391.875,-19.67
17404.0625,-19.91
17416.25,-20.04
17428.4375,-20.11
17440.625,-19.92
17452.8125,-19.73
17465,-19.27
17477.1875,-18.70
17489.375,-17.96
17501.5625,-17.30
17513.75,-16.86
17525.9375,-16.67
17538.125,-16.97
17550.3125,-17.51
17562.5,-17.99
17574.6875,-18.69
17586.875,-19.21
17599.0625,-19.64
17611.25,-19.91
17623.4375,-19.96
17635.625,-19.95
17647.8125,-19.77
17660,-19.57
17672.1875,-19.12
17684.375,-18.39
17696.5625,-17.63
17708.75,-16.85
17720.9375,-16.14
17733.125,-15.50
17745.3125,-15.14
17757.5,-15.08
17769.6875,-15.12
17781.875,-15.28
17794.0625,-15.49
17806.25,-15.68
17818.4375,-15.65
17830.625,-15.63
17842.8125,-15.43
17855,-15.08
17867.1875,-14.59
17879.375,-14.10
17891.5625,-13.73
17903.75,-13.35
17915.9375,-13.33
17928.125,-13.49
17940.3125,-13.83
17952.5,-14.28
17964.6875,-14.74
17976.875,-15.17
17989.0625,-15.41
18001.25,-15.49
18013.4375,-15.52
18025.625,-15.47
18037.8125,-15.21
18050,-14.81
18062.1875,-14.38
18074.375,-13.86
18086.5625,-13.48
18098.75,-13.18
18110.9375,-12.98
18123.125,-12.90
18135.3125,-13.03
18147.5,-13.17
18159.6875,-13.29
18171.875,-13.45
18184.0625,-13.55
18196.25,-13.59
18208.4375,-13.54
18220.625,-13.58
18232.8125,-13.55
18245,-13.66
18257.1875,-13.77
18269.375,-14.05
18281.5625,-14.27
18293.75,-14.72
18305.9375,-14.89
18318.125,-15.02
18330.3125,-15.11
18342.5,-15.18
18354.6875,-15.11
18366.875,-14.86
18379.0625,-14.59
18391.25,-14.49
18403.4375,-14.23
18415.625,-14.21
18427.8125,-14.47
18440,-14.86
18452.1875,-15.37
18464.375,-15.89
18476.5625,-16.45
18488.75,-16.96
18500.9375,-17.11
18513.125,-17.31
18525.3125,-17.37
18537.5,-17.11
18549.6875,-16.89
18561.875,-16.63
18574.0625,-16.35
18586.25,-16.33
18598.4375,-16.41
18610.625,-16.83
18622.8125,-17.33
18635,-18.06
18647.1875,-18.69
18659.375,-19.21
18671.5625,-19.79
18683.75,-20.15
18695.9375,-20.20
18708.125,-20.15
18720.3125,-19.84
18732.5,-19.68
18744.6875,-19.41
18756.875,-19.27
18769.0625,-19.26
18781.25,-19.55
18793.4375,-20.22
18805.625,-20.84
18817.8125,-21.47
18830,-22.15
18842.1875,-22.66
18854.375,-23.02
18866.5625,-23.30
18878.75,-23.37
18890.9375,-23.44
18903.125,-23.80
18915.3125,-24.35
18927.5,-25.27
18939.6875,-26.63
18951.875,-27.87
18964.0625,-29.42
18976.25,-30.79
18988.4375,-32.10
19000.625,-32.91
19012.8125,-33.75
19025,-34.48
19037.1875,-35.13
19049.375,-35.44
19061.5625,-36.27
19073.75,-36.97
19085.9375,-38.32
19098.125,-38.62
19110.3125,-39.71
19122.5,-40.15
19134.6875,-41.48
19146.875,-40.45
19159.0625,-41.07
19171.25,-40.70
19183.4375,-39.94
19195.625,-38.98
19207.8125,-38.60
19220,-37.43
19232.1875,-36.59
19244.375,-35.91
19256.5625,-34.94
19268.75,-35.31
19280.9375,-35.51
19293.125,-35.60
19305.3125,-36.06
19317.5,-36.36
19329.6875,-37.08
19341.875,-36.93
19354.0625,-37.15
19366.25,-37.21
19378.4375,-37.11
19390.625,-36.51
19402.8125,-36.05
19415,-35.49
19427.1875,-35.22
19439.375,-34.91
19451.5625,-34.78
19463.75,-34.76
19475.9375,-34.76
19488.125,-35.24
19500.3125,-35.75
19512.5,-35.74
19524.6875,-36.62
19536.875,-36.74
19549.0625,-37.92
19561.25,-36.80
19573.4375,-37.36
19585.625,-37.15
19597.8125,-36.35
19610,-35.96
19622.1875,-34.72
19634.375,-33.92
19646.5625,-33.32
19658.75,-32.93
19670.9375,-33.04
19683.125,-33.27
19695.3125,-33.74
19707.5,-34.05
19719.6875,-34.06
19731.875,-34.72
19744.0625,-34.38
19756.25,-34.23
19768.4375,-34.10
19780.625,-33.83
19792.8125,-33.13
19805,-32.58
19817.1875,-32.17
19829.375,-33.07
19841.5625,-33.61
19853.75,-35.16
19865.9375,-36.79
19878.125,-39.06
19890.3125,-41.75
19902.5,-44.25
19914.6875,-45.38
19926.875,-49.01
19939.0625,-47.48
19951.25,-51.70
19963.4375,-48.04
19975.625,-48.45
19987.8125,-49.92
20000,-47.95
