Freq(MHz),Loss
500,-98.34
512.1875,-92.8
524.375,-91.84
536.5625,-94.75
548.75,-94.14
560.9375,-91.18
573.125,-92.24
585.3125,-90.44
597.5,-84.68
609.6875,-89.87
621.875,-93.31
634.0625,-88.16
646.25,-88.13
658.4375,-93.76
670.625,-98.72
682.8125,-87.13
695,-94.15
707.1875,-85.36
719.375,-90.21
731.5625,-92.93
743.75,-82.53
755.9375,-90.84
768.125,-93.79
780.3125,-90.65
792.5,-86.2
804.6875,-88.21
816.875,-100.33
829.0625,-82.19
841.25,-93.33
853.4375,-93.18
865.625,-88.81
877.8125,-90.74
890,-94.68
902.1875,-111.42
914.375,-88.93
926.5625,-84.96
938.75,-90.28
950.9375,-92.63
963.125,-84.99
975.3125,-85
987.5,-97.44
999.6875,-82.63
1011.875,-85.2
1024.0625,-92.22
1036.25,-87.36
1048.4375,-86.11
1060.625,-86.2
1072.8125,-91.84
1085,-88.86
1097.1875,-87.43
1109.375,-83.91
1121.5625,-98.24
1133.75,-93.68
1145.9375,-98.77
1158.125,-90.81
1170.3125,-86
1182.5,-80.87
1194.6875,-87.26
1206.875,-86.25
1219.0625,-84.15
1231.25,-92.94
1243.4375,-97.87
1255.625,-80.42
1267.8125,-82.8
1280,-83.55
1292.1875,-85.51
1304.375,-94.69
1316.5625,-83.06
1328.75,-84.33
1340.9375,-84.19
1353.125,-95.04
1365.3125,-96.44
1377.5,-85.06
1389.6875,-86.93
1401.875,-87.02
1414.0625,-84.14
1426.25,-87.07
1438.4375,-90.37
1450.625,-96.8
1462.8125,-92.37
1475,-85.2
1487.1875,-87.08
1499.375,-86.63
1511.5625,-85.75
1523.75,-82.38
1535.9375,-88.12
1548.125,-92.16
1560.3125,-85.74
1572.5,-85.35
1584.6875,-89.94
1596.875,-89.07
1609.0625,-82.42
1621.25,-85.39
1633.4375,-77.93
1645.625,-92.16
1657.8125,-84.51
1670,-85.24
1682.1875,-84.05
1694.375,-94.33
1706.5625,-83.91
1718.75,-85.03
1730.9375,-87.41
1743.125,-84.23
1755.3125,-98.62
1767.5,-87.05
1779.6875,-93.01
1791.875,-88.06
1804.0625,-79.98
1816.25,-95.14
1828.4375,-88.58
1840.625,-86.84
1852.8125,-83.44
1865,-81.96
1877.1875,-91
1889.375,-87.54
1901.5625,-87.97
1913.75,-87.15
1925.9375,-86.11
1938.125,-85.95
1950.3125,-98.8
1962.5,-90.57
1974.6875,-87.31
1986.875,-85.15
1999.0625,-88.41
2011.25,-88.56
2023.4375,-88.09
2035.625,-101.48
2047.8125,-88.12
2060,-88.39
2072.1875,-81.69
2084.375,-90.94
2096.5625,-81.78
2108.75,-86.74
2120.9375,-84.29
2133.125,-86.05
2145.3125,-90.72
2157.5,-84.09
2169.6875,-83.09
2181.875,-79.43
2194.0625,-83.48
2206.25,-83.1
2218.4375,-97.6
2230.625,-84.65
2242.8125,-83.76
2255,-86.55
2267.1875,-84.77
2279.375,-92.12
2291.5625,-91.62
2303.75,-87.65
2315.9375,-87.57
2328.125,-96.64
2340.3125,-110.42
2352.5,-92.51
2364.6875,-85.53
2376.875,-86.77
2389.0625,-87.5
2401.25,-93.95
2413.4375,-92.71
2425.625,-87.78
2437.8125,-98.12
2450,-81.55
2462.1875,-86.37
2474.375,-84.38
2486.5625,-87.98
2498.75,-86.93
2510.9375,-90.89
2523.125,-82.4
2535.3125,-90.19
2547.5,-85.93
2559.6875,-83.37
2571.875,-83.81
2584.0625,-87.88
2596.25,-89.33
2608.4375,-94.81
2620.625,-80.96
2632.8125,-96.63
2645,-85.47
2657.1875,-94.77
2669.375,-88.04
2681.5625,-83.86
2693.75,-89.13
2705.9375,-106.15
2718.125,-87.3
2730.3125,-89.62
2742.5,-88.21
2754.6875,-93.96
2766.875,-94.51
2779.0625,-91.38
2791.25,-78.41
2803.4375,-79.82
2815.625,-86.08
2827.8125,-86.77
2840,-87.46
2852.1875,-94.13
2864.375,-80.13
2876.5625,-87.27
2888.75,-79.93
2900.9375,-91.42
2913.125,-88.12
2925.3125,-84.46
2937.5,-81.28
2949.6875,-99.42
2961.875,-94.09
2974.0625,-84.54
2986.25,-81.79
2998.4375,-83.76
3010.625,-99.88
3022.8125,-86.66
3035,-86.51
3047.1875,-83.59
3059.375,-88.79
3071.5625,-90.31
3083.75,-87.69
3095.9375,-80.94
3108.125,-88.32
3120.3125,-87.35
3132.5,-93.28
3144.6875,-93.21
3156.875,-85.82
3169.0625,-97.55
3181.25,-106.41
3193.4375,-94.13
3205.625,-96.03
3217.8125,-95.77
3230,-80.18
3242.1875,-81.56
3254.375,-90.21
3266.5625,-87.39
3278.75,-89
3290.9375,-83.15
3303.125,-79.5
3315.3125,-92.91
3327.5,-90.66
3339.6875,-88.37
3351.875,-84.72
3364.0625,-85.68
3376.25,-82.41
3388.4375,-93.23
3400.625,-84.04
3412.8125,-83.25
3425,-83.74
3437.1875,-78.98
3449.375,-79.45
3461.5625,-95.99
3473.75,-78.88
3485.9375,-83.42
3498.125,-85.15
3510.3125,-85.68
3522.5,-84.44
3534.6875,-86.88
3546.875,-83
3559.0625,-83.46
3571.25,-84.3
3583.4375,-91.93
3595.625,-84.29
3607.8125,-90.54
3620,-78.72
3632.1875,-78.76
3644.375,-84.21
3656.5625,-85.96
3668.75,-87.3
3680.9375,-96.88
3693.125,-83.09
3705.3125,-86.67
3717.5,-94.22
3729.6875,-86.64
3741.875,-81.84
3754.0625,-87.79
3766.25,-87.61
3778.4375,-87.46
3790.625,-94.45
3802.8125,-88.76
3815,-82.1
3827.1875,-82.37
3839.375,-88.49
3851.5625,-78.17
3863.75,-100.83
3875.9375,-80.98
3888.125,-83.74
3900.3125,-82.72
3912.5,-86.31
3924.6875,-87.43
3936.875,-78.35
3949.0625,-85.69
3961.25,-95.74
3973.4375,-93.82
3985.625,-90.98
3997.8125,-80.9
4010,-88.83
4022.1875,-86.97
4034.375,-88.74
4046.5625,-84.82
4058.75,-94.33
4070.9375,-80.74
4083.125,-82.06
4095.3125,-82.2
4107.5,-87.61
4119.6875,-88.71
4131.875,-89.24
4144.0625,-89.54
4156.25,-97.12
4168.4375,-84.09
4180.625,-85.53
4192.8125,-94.56
4205,-83.7
4217.1875,-83.78
4229.375,-83.59
4241.5625,-87.81
4253.75,-82.78
4265.9375,-84.14
4278.125,-81.08
4290.3125,-90.4
4302.5,-90.57
4314.6875,-87.87
4326.875,-83.58
4339.0625,-89.36
4351.25,-86.06
4363.4375,-86.86
4375.625,-90.42
4387.8125,-87.52
4400,-92.06
4412.1875,-82.42
4424.375,-85.79
4436.5625,-90.4
4448.75,-78.31
4460.9375,-85.42
4473.125,-81.72
4485.3125,-87.45
4497.5,-91.27
4509.6875,-84.54
4521.875,-89.21
4534.0625,-83.53
4546.25,-86.81
4558.4375,-93.35
4570.625,-83
4582.8125,-86.62
4595,-90.25
4607.1875,-83.34
4619.375,-87.47
4631.5625,-88.03
4643.75,-83.59
4655.9375,-104.37
4668.125,-84.29
4680.3125,-84.29
4692.5,-86.75
4704.6875,-84.35
4716.875,-86.83
4729.0625,-85.26
4741.25,-93.2
4753.4375,-88.53
4765.625,-96.02
4777.8125,-81.99
4790,-90.19
4802.1875,-87.05
4814.375,-87.68
4826.5625,-92.95
4838.75,-84.71
4850.9375,-88.38
4863.125,-83.1
4875.3125,-104.51
4887.5,-90.99
4899.6875,-87.86
4911.875,-84.59
4924.0625,-80.65
4936.25,-92.37
4948.4375,-97.39
4960.625,-82.38
4972.8125,-93.8
4985,-84.9
4997.1875,-87.46
5009.375,-82.4
5021.5625,-92
5033.75,-82.61
5045.9375,-88.05
5058.125,-95.54
5070.3125,-82.19
5082.5,-87.85
5094.6875,-88.97
5106.875,-95.23
5119.0625,-88.02
5131.25,-90.21
5143.4375,-89.22
5155.625,-93.28
5167.8125,-86.28
5180,-79.85
5192.1875,-93.79
5204.375,-83.78
5216.5625,-92.57
5228.75,-90.18
5240.9375,-83.33
5253.125,-89.49
5265.3125,-81.2
5277.5,-82.32
5289.6875,-90.29
5301.875,-110.85
5314.0625,-86.07
5326.25,-101.69
5338.4375,-88.8
5350.625,-100.66
5362.8125,-88.43
5375,-94.79
5387.1875,-84.23
5399.375,-93.94
5411.5625,-94.88
5423.75,-91.62
5435.9375,-95.24
5448.125,-87.04
5460.3125,-93.48
5472.5,-96.62
5484.6875,-85.12
5496.875,-84.15
5509.0625,-88.67
5521.25,-89.2
5533.4375,-89.48
5545.625,-89.5
5557.8125,-82.42
5570,-90.36
5582.1875,-88.1
5594.375,-91.6
5606.5625,-84.95
5618.75,-86.74
5630.9375,-81.13
5643.125,-93.37
5655.3125,-88.43
5667.5,-102
5679.6875,-91.3
5691.875,-89.01
5704.0625,-82.59
5716.25,-81.64
5728.4375,-80.07
5740.625,-90.47
5752.8125,-80.81
5765,-97.36
5777.1875,-83.28
5789.375,-93.26
5801.5625,-90.3
5813.75,-94.42
5825.9375,-94.6
5838.125,-84.77
5850.3125,-86.99
5862.5,-82.75
5874.6875,-85.29
5886.875,-79.32
5899.0625,-75.67
5911.25,-80.86
5923.4375,-83.7
5935.625,-78.72
5947.8125,-74.62
5960,-72.86
5972.1875,-74.61
5984.375,-73.71
5996.5625,-68.06
6008.75,-67.86
6020.9375,-64.42
6033.125,-63.16
6045.3125,-61.21
6057.5,-58.78
6069.6875,-56.74
6081.875,-53.74
6094.0625,-52
6106.25,-50.05
6118.4375,-48.36
6130.625,-46.84
6142.8125,-45.74
6155,-44.03
6167.1875,-42.44
6179.375,-40.46
6191.5625,-38.21
6203.75,-35.56
6215.9375,-32.82
6228.125,-29.89
6240.3125,-26.96
6252.5,-24.11
6264.6875,-21.6
6276.875,-19.51
6289.0625,-17.84
6301.25,-16.48
6313.4375,-15.45
6325.625,-14.72
6337.8125,-14.32
6350,-14.2
6362.1875,-14.24
6374.375,-14.24
6386.5625,-14.01
6398.75,-13.65
6410.9375,-13.29
6423.125,-13.02
6435.3125,-12.83
6447.5,-12.72
6459.6875,-12.72
6471.875,-12.77
6484.0625,-12.81
6496.25,-12.76
6508.4375,-12.66
6520.625,-12.59
6532.8125,-12.56
6545,-12.51
6557.1875,-12.44
6569.375,-12.43
6581.5625,-12.47
6593.75,-12.52
6605.9375,-12.51
6618.125,-12.44
6630.3125,-12.36
6642.5,-12.31
6654.6875,-12.29
6666.875,-12.26
6679.0625,-12.2
6691.25,-12.18
6703.4375,-12.22
6715.625,-12.28
6727.8125,-12.3
6740,-12.23
6752.1875,-12.14
6764.375,-12.08
6776.5625,-12.05
6788.75,-12.02
6800.9375,-11.97
6813.125,-11.97
6825.3125,-12.03
6837.5,-12.11
6849.6875,-12.17
6861.875,-12.2
6874.0625,-12.25
6886.25,-12.34
6898.4375,-12.44
6910.625,-12.44
6922.8125,-12.34
6935,-12.19
6947.1875,-12.06
6959.375,-11.99
6971.5625,-11.96
6983.75,-11.91
6995.9375,-11.87
7008.125,-11.89
7020.3125,-11.96
7032.5,-12.02
7044.6875,-12.03
7056.875,-11.99
7069.0625,-11.95
7081.25,-11.95
7093.4375,-11.97
7105.625,-11.96
7117.8125,-11.91
7130,-11.85
7142.1875,-11.83
7154.375,-11.86
7166.5625,-11.87
7178.75,-11.85
7190.9375,-11.85
7203.125,-11.88
7215.3125,-11.94
7227.5,-11.96
7239.6875,-11.92
7251.875,-11.87
7264.0625,-11.82
7276.25,-11.84
7288.4375,-11.87
7300.625,-11.88
7312.8125,-11.87
7325,-11.88
7337.1875,-11.95
7349.375,-12.05
7361.5625,-12.09
7373.75,-12.06
7385.9375,-12.01
7398.125,-11.96
7410.3125,-11.95
7422.5,-11.94
7434.6875,-11.9
7446.875,-11.84
7459.0625,-11.82
7471.25,-11.84
7483.4375,-11.88
7495.625,-11.91
7507.8125,-11.93
7520,-11.97
7532.1875,-12.07
7544.375,-12.17
7556.5625,-12.22
7568.75,-12.19
7580.9375,-12.13
7593.125,-12.08
7605.3125,-12.08
7617.5,-12.08
7629.6875,-12.03
7641.875,-11.97
7654.0625,-11.92
7666.25,-11.92
7678.4375,-11.97
7690.625,-12
7702.8125,-11.98
7715,-11.94
7727.1875,-11.93
7739.375,-11.96
7751.5625,-11.97
7763.75,-11.96
7775.9375,-11.9
7788.125,-11.85
7800.3125,-11.84
7812.5,-11.86
7824.6875,-11.87
7836.875,-11.87
7849.0625,-11.92
7861.25,-12.02
7873.4375,-12.12
7885.625,-12.21
7897.8125,-12.22
7910,-12.18
7922.1875,-12.15
7934.375,-12.17
7946.5625,-12.19
7958.75,-12.16
7970.9375,-12.08
7983.125,-11.99
7995.3125,-11.95
8007.5,-11.95
8019.6875,-11.96
8031.875,-11.95
8044.0625,-11.93
8056.25,-11.95
8068.4375,-12
8080.625,-12.06
8092.8125,-12.05
8105,-12
8117.1875,-11.94
8129.375,-11.91
8141.5625,-11.92
8153.75,-11.91
8165.9375,-11.89
8178.125,-11.87
8190.3125,-11.91
8202.5,-12
8214.6875,-12.08
8226.875,-12.13
8239.0625,-12.14
8251.25,-12.15
8263.4375,-12.22
8275.625,-12.31
8287.8125,-12.36
8300,-12.33
8312.1875,-12.24
8324.375,-12.14
8336.5625,-12.08
8348.75,-12.05
8360.9375,-12.02
8373.125,-11.97
8385.3125,-11.93
8397.5,-11.92
8409.6875,-11.93
8421.875,-11.94
8434.0625,-11.94
8446.25,-11.95
8458.4375,-11.98
8470.625,-12.05
8482.8125,-12.09
8495,-12.09
8507.1875,-12.07
8519.375,-12.04
8531.5625,-12.09
8543.75,-12.13
8555.9375,-12.15
8568.125,-12.12
8580.3125,-12.11
8592.5,-12.12
8604.6875,-12.19
8616.875,-12.28
8629.0625,-12.29
8641.25,-12.25
8653.4375,-12.17
8665.625,-12.11
8677.8125,-12.12
8690,-12.12
8702.1875,-12.11
8714.375,-12.08
8726.5625,-12.05
8738.75,-12.07
8750.9375,-12.09
8763.125,-12.09
8775.3125,-12.12
8787.5,-12.18
8799.6875,-12.28
8811.875,-12.41
8824.0625,-12.46
8836.25,-12.46
8848.4375,-12.42
8860.625,-12.36
8872.8125,-12.35
8885,-12.36
8897.1875,-12.33
8909.375,-12.3
8921.5625,-12.2
8933.75,-12.11
8945.9375,-12.1
8958.125,-12.06
8970.3125,-12.03
8982.5,-12.04
8994.6875,-12.04
9006.875,-12.09
9019.0625,-12.14
9031.25,-12.11
9043.4375,-12.09
9055.625,-12.06
9067.8125,-12.02
9080,-12.04
9092.1875,-12.05
9104.375,-12.06
9116.5625,-12.09
9128.75,-12.15
9140.9375,-12.22
9153.125,-12.28
9165.3125,-12.32
9177.5,-12.35
9189.6875,-12.41
9201.875,-12.47
9214.0625,-12.63
9226.25,-12.69
9238.4375,-12.67
9250.625,-12.59
9262.8125,-12.49
9275,-12.38
9287.1875,-12.37
9299.375,-12.35
9311.5625,-12.32
9323.75,-12.3
9335.9375,-12.3
9348.125,-12.26
9360.3125,-12.27
9372.5,-12.28
9384.6875,-12.32
9396.875,-12.38
9409.0625,-12.48
9421.25,-12.56
9433.4375,-12.6
9445.625,-12.56
9457.8125,-12.52
9470,-12.47
9482.1875,-12.45
9494.375,-12.43
9506.5625,-12.41
9518.75,-12.36
9530.9375,-12.31
9543.125,-12.3
9555.3125,-12.28
9567.5,-12.26
9579.6875,-12.27
9591.875,-12.27
9604.0625,-12.32
9616.25,-12.39
9628.4375,-12.42
9640.625,-12.44
9652.8125,-12.4
9665,-12.37
9677.1875,-12.33
9689.375,-12.35
9701.5625,-12.37
9713.75,-12.35
9725.9375,-12.33
9738.125,-12.32
9750.3125,-12.3
9762.5,-12.34
9774.6875,-12.35
9786.875,-12.36
9799.0625,-12.37
9811.25,-12.41
9823.4375,-12.46
9835.625,-12.49
9847.8125,-12.51
9860,-12.44
9872.1875,-12.39
9884.375,-12.36
9896.5625,-12.34
9908.75,-12.36
9920.9375,-12.31
9933.125,-12.29
9945.3125,-12.27
9957.5,-12.28
9969.6875,-12.26
9981.875,-12.27
9994.0625,-12.31
10006.25,-12.34
10018.4375,-12.39
10030.625,-12.41
10042.8125,-12.46
10055,-12.41
10067.1875,-12.42
10079.375,-12.42
10091.5625,-12.47
10103.75,-12.46
10115.9375,-12.45
10128.125,-12.41
10140.3125,-12.38
10152.5,-12.33
10164.6875,-12.35
10176.875,-12.37
10189.0625,-12.34
10201.25,-12.32
10213.4375,-12.3
10225.625,-12.31
10237.8125,-12.3
10250,-12.3
10262.1875,-12.3
10274.375,-12.32
10286.5625,-12.33
10298.75,-12.34
10310.9375,-12.35
10323.125,-12.35
10335.3125,-12.36
10347.5,-12.38
10359.6875,-12.39
10371.875,-12.39
10384.0625,-12.4
10396.25,-12.41
10408.4375,-12.38
10420.625,-12.38
10432.8125,-12.39
10445,-12.4
10457.1875,-12.4
10469.375,-12.39
10481.5625,-12.42
10493.75,-12.46
10505.9375,-12.48
10518.125,-12.5
10530.3125,-12.49
10542.5,-12.5
10554.6875,-12.54
10566.875,-12.58
10579.0625,-12.61
10591.25,-12.64
10603.4375,-12.63
10615.625,-12.65
10627.8125,-12.64
10640,-12.65
10652.1875,-12.64
10664.375,-12.63
10676.5625,-12.6
10688.75,-12.62
10700.9375,-12.57
10713.125,-12.6
10725.3125,-12.58
10737.5,-12.56
10749.6875,-12.58
10761.875,-12.61
10774.0625,-12.65
10786.25,-12.65
10798.4375,-12.65
10810.625,-12.64
10822.8125,-12.65
10835,-12.67
10847.1875,-12.7
10859.375,-12.68
10871.5625,-12.66
10883.75,-12.63
10895.9375,-12.66
10908.125,-12.69
10920.3125,-12.71
10932.5,-12.71
10944.6875,-12.73
10956.875,-12.75
10969.0625,-12.85
10981.25,-12.89
10993.4375,-12.93
11005.625,-12.93
11017.8125,-12.91
11030,-12.92
11042.1875,-12.93
11054.375,-12.95
11066.5625,-12.91
11078.75,-12.82
11090.9375,-12.74
11103.125,-12.71
11115.3125,-12.69
11127.5,-12.67
11139.6875,-12.69
11151.875,-12.74
11164.0625,-12.81
11176.25,-12.88
11188.4375,-12.98
11200.625,-13.01
11212.8125,-13.08
11225,-13.13
11237.1875,-13.16
11249.375,-13.24
11261.5625,-13.23
11273.75,-13.19
11285.9375,-13.11
11298.125,-13.02
11310.3125,-12.93
11322.5,-12.89
11334.6875,-12.84
11346.875,-12.82
11359.0625,-12.85
11371.25,-12.88
11383.4375,-12.96
11395.625,-13.05
11407.8125,-13.07
11420,-13.12
11432.1875,-13.18
11444.375,-13.27
11456.5625,-13.34
11468.75,-13.36
11480.9375,-13.31
11493.125,-13.25
11505.3125,-13.18
11517.5,-13.13
11529.6875,-13.12
11541.875,-13.06
11554.0625,-13.04
11566.25,-13.02
11578.4375,-13
11590.625,-13.06
11602.8125,-13.1
11615,-13.14
11627.1875,-13.18
11639.375,-13.22
11651.5625,-13.29
11663.75,-13.34
11675.9375,-13.37
11688.125,-13.31
11700.3125,-13.22
11712.5,-13.16
11724.6875,-13.08
11736.875,-13.09
11749.0625,-13.07
11761.25,-13.06
11773.4375,-13.02
11785.625,-13.03
11797.8125,-13.08
11810,-13.14
11822.1875,-13.19
11834.375,-13.24
11846.5625,-13.29
11858.75,-13.33
11870.9375,-13.38
11883.125,-13.37
11895.3125,-13.36
11907.5,-13.27
11919.6875,-13.23
11931.875,-13.2
11944.0625,-13.16
11956.25,-13.09
11968.4375,-13.04
11980.625,-13.02
11992.8125,-13.02
12005,-13.05
12017.1875,-13.09
12029.375,-13.12
12041.5625,-13.16
12053.75,-13.25
12065.9375,-13.33
12078.125,-13.37
12090.3125,-13.39
12102.5,-13.37
12114.6875,-13.38
12126.875,-13.37
12139.0625,-13.42
12151.25,-13.42
12163.4375,-13.37
12175.625,-13.3
12187.8125,-13.23
12200,-13.22
12212.1875,-13.24
12224.375,-13.22
12236.5625,-13.21
12248.75,-13.2
12260.9375,-13.19
12273.125,-13.24
12285.3125,-13.25
12297.5,-13.3
12309.6875,-13.3
12321.875,-13.32
12334.0625,-13.37
12346.25,-13.43
12358.4375,-13.5
12370.625,-13.57
12382.8125,-13.57
12395,-13.57
12407.1875,-13.61
12419.375,-13.65
12431.5625,-13.66
12443.75,-13.66
12455.9375,-13.61
12468.125,-13.61
12480.3125,-13.6
12492.5,-13.6
12504.6875,-13.58
12516.875,-13.55
12529.0625,-13.55
12541.25,-13.56
12553.4375,-13.63
12565.625,-13.67
12577.8125,-13.68
12590,-13.66
12602.1875,-13.65
12614.375,-13.64
12626.5625,-13.69
12638.75,-13.7
12650.9375,-13.68
12663.125,-13.62
12675.3125,-13.6
12687.5,-13.6
12699.6875,-13.61
12711.875,-13.6
12724.0625,-13.61
12736.25,-13.64
12748.4375,-13.7
12760.625,-13.8
12772.8125,-13.86
12785,-13.88
12797.1875,-13.84
12809.375,-13.82
12821.5625,-13.85
12833.75,-13.87
12845.9375,-13.87
12858.125,-13.81
12870.3125,-13.73
12882.5,-13.67
12894.6875,-13.62
12906.875,-13.59
12919.0625,-13.58
12931.25,-13.6
12943.4375,-13.64
12955.625,-13.72
12967.8125,-13.82
12980,-13.89
12992.1875,-13.95
13004.375,-13.99
13016.5625,-14.05
13028.75,-14.12
13040.9375,-14.2
13053.125,-14.24
13065.3125,-14.21
13077.5,-14.12
13089.6875,-14.04
13101.875,-13.97
13114.0625,-13.93
13126.25,-13.85
13138.4375,-13.79
13150.625,-13.67
13162.8125,-13.66
13175,-13.61
13187.1875,-13.6
13199.375,-13.58
13211.5625,-13.6
13223.75,-13.62
13235.9375,-13.64
13248.125,-13.68
13260.3125,-13.73
13272.5,-13.73
13284.6875,-13.76
13296.875,-13.76
13309.0625,-13.82
13321.25,-13.83
13333.4375,-13.87
13345.625,-13.8
13357.8125,-13.8
13370,-13.82
13382.1875,-13.86
13394.375,-13.85
13406.5625,-13.82
13418.75,-13.78
13430.9375,-13.74
13443.125,-13.79
13455.3125,-13.8
13467.5,-13.78
13479.6875,-13.74
13491.875,-13.74
13504.0625,-13.73
13516.25,-13.78
13528.4375,-13.8
13540.625,-13.78
13552.8125,-13.8
13565,-13.77
13577.1875,-13.71
13589.375,-13.79
13601.5625,-13.74
13613.75,-13.8
13625.9375,-13.79
13638.125,-13.78
13650.3125,-13.74
13662.5,-13.84
13674.6875,-13.81
13686.875,-13.79
13699.0625,-13.78
13711.25,-13.84
13723.4375,-13.86
13735.625,-13.91
13747.8125,-13.9
13760,-13.85
13772.1875,-13.82
13784.375,-13.75
13796.5625,-13.78
13808.75,-13.78
13820.9375,-13.74
13833.125,-13.68
13845.3125,-13.66
13857.5,-13.65
13869.6875,-13.69
13881.875,-13.66
13894.0625,-13.74
13906.25,-13.78
13918.4375,-13.86
13930.625,-13.98
13942.8125,-14.06
13955,-14.11
13967.1875,-14.12
13979.375,-14.1
13991.5625,-14.07
14003.75,-14.17
14015.9375,-14.14
14028.125,-14.11
14040.3125,-14.02
14052.5,-13.92
14064.6875,-13.84
14076.875,-13.79
14089.0625,-13.77
14101.25,-13.73
14113.4375,-13.71
14125.625,-13.73
14137.8125,-13.74
14150,-13.81
14162.1875,-13.84
14174.375,-13.86
14186.5625,-13.94
14198.75,-13.97
14210.9375,-14.03
14223.125,-14.09
14235.3125,-14.09
14247.5,-14.06
14259.6875,-14.02
14271.875,-14.05
14284.0625,-14.05
14296.25,-14.03
14308.4375,-13.98
14320.625,-13.94
14332.8125,-13.89
14345,-13.91
14357.1875,-13.91
14369.375,-13.95
14381.5625,-13.94
14393.75,-13.89
14405.9375,-13.89
14418.125,-13.95
14430.3125,-14
14442.5,-14
14454.6875,-13.92
14466.875,-13.93
14479.0625,-13.95
14491.25,-13.9
14503.4375,-13.92
14515.625,-13.91
14527.8125,-13.9
14540,-13.9
14552.1875,-13.94
14564.375,-13.97
14576.5625,-14.01
14588.75,-14.02
14600.9375,-14.1
14613.125,-14.15
14625.3125,-14.28
14637.5,-14.31
14649.6875,-14.28
14661.875,-14.34
14674.0625,-14.36
14686.25,-14.4
14698.4375,-14.44
14710.625,-14.43
14722.8125,-14.37
14735,-14.33
14747.1875,-14.24
14759.375,-14.2
14771.5625,-14.19
14783.75,-14.18
14795.9375,-14.15
14808.125,-14.13
14820.3125,-14.15
14832.5,-14.21
14844.6875,-14.27
14856.875,-14.29
14869.0625,-14.35
14881.25,-14.48
14893.4375,-14.56
14905.625,-14.68
14917.8125,-14.74
14930,-14.71
14942.1875,-14.67
14954.375,-14.63
14966.5625,-14.67
14978.75,-14.67
14990.9375,-14.61
15003.125,-14.56
15015.3125,-14.45
15027.5,-14.33
15039.6875,-14.24
15051.875,-14.2
15064.0625,-14.14
15076.25,-14.11
15088.4375,-14.15
15100.625,-14.14
15112.8125,-14.23
15125,-14.24
15137.1875,-14.3
15149.375,-14.27
15161.5625,-14.29
15173.75,-14.32
15185.9375,-14.35
15198.125,-14.39
15210.3125,-14.36
15222.5,-14.3
15234.6875,-14.2
15246.875,-14.2
15259.0625,-14.16
15271.25,-14.18
15283.4375,-14.18
15295.625,-14.21
15307.8125,-14.24
15320,-14.26
15332.1875,-14.3
15344.375,-14.35
15356.5625,-14.4
15368.75,-14.35
15380.9375,-14.43
15393.125,-14.42
15405.3125,-14.46
15417.5,-14.48
15429.6875,-14.39
15441.875,-14.35
15454.0625,-14.29
15466.25,-14.28
15478.4375,-14.29
15490.625,-14.37
15502.8125,-14.41
15515,-14.49
15527.1875,-14.57
15539.375,-14.63
15551.5625,-14.69
15563.75,-14.72
15575.9375,-14.85
15588.125,-14.94
15600.3125,-15.09
15612.5,-15.12
15624.6875,-15.07
15636.875,-15.01
15649.0625,-14.99
15661.25,-14.98
15673.4375,-14.96
15685.625,-14.97
15697.8125,-14.92
15710,-14.82
15722.1875,-14.79
15734.375,-14.8
15746.5625,-14.8
15758.75,-14.86
15770.9375,-14.87
15783.125,-14.91
15795.3125,-14.98
15807.5,-15.11
15819.6875,-15.18
15831.875,-15.17
15844.0625,-15.14
15856.25,-15.11
15868.4375,-15.08
15880.625,-15.14
15892.8125,-15.14
15905,-15.17
15917.1875,-15.11
15929.375,-15.04
15941.5625,-15.01
15953.75,-15.01
15965.9375,-15.06
15978.125,-15.02
15990.3125,-15.04
16002.5,-15.01
16014.6875,-15.02
16026.875,-15.12
16039.0625,-15.13
16051.25,-15.1
16063.4375,-15.17
16075.625,-15.16
16087.8125,-15.23
16100,-15.25
16112.1875,-15.27
16124.375,-15.26
16136.5625,-15.26
16148.75,-15.27
16160.9375,-15.29
16173.125,-15.27
16185.3125,-15.28
16197.5,-15.24
16209.6875,-15.29
16221.875,-15.34
16234.0625,-15.36
16246.25,-15.34
16258.4375,-15.39
16270.625,-15.43
16282.8125,-15.51
16295,-15.61
16307.1875,-15.71
16319.375,-15.73
16331.5625,-15.72
16343.75,-15.77
16355.9375,-15.83
16368.125,-15.91
16380.3125,-15.91
16392.5,-15.86
16404.6875,-15.75
16416.875,-15.72
16429.0625,-15.65
16441.25,-15.63
16453.4375,-15.61
16465.625,-15.6
16477.8125,-15.55
16490,-15.59
16502.1875,-15.65
16514.375,-15.78
16526.5625,-15.86
16538.75,-15.93
16550.9375,-16.02
16563.125,-16.09
16575.3125,-16.22
16587.5,-16.27
16599.6875,-16.28
16611.875,-16.27
16624.0625,-16.29
16636.25,-16.32
16648.4375,-16.29
16660.625,-16.3
16672.8125,-16.26
16685,-16.2
16697.1875,-16.18
16709.375,-16.19
16721.5625,-16.31
16733.75,-16.37
16745.9375,-16.44
16758.125,-16.53
16770.3125,-16.53
16782.5,-16.56
16794.6875,-16.57
16806.875,-16.53
16819.0625,-16.52
16831.25,-16.46
16843.4375,-16.42
16855.625,-16.26
16867.8125,-16.18
16880,-16.1
16892.1875,-16.08
16904.375,-16.11
16916.5625,-16.12
16928.75,-16.22
16940.9375,-16.28
16953.125,-16.35
16965.3125,-16.57
16977.5,-16.77
16989.6875,-16.89
17001.875,-17.01
17014.0625,-17.01
17026.25,-17.01
17038.4375,-17.02
17050.625,-17.07
17062.8125,-17.01
17075,-16.93
17087.1875,-16.75
17099.375,-16.64
17111.5625,-16.52
17123.75,-16.44
17135.9375,-16.39
17148.125,-16.35
17160.3125,-16.33
17172.5,-16.35
17184.6875,-16.39
17196.875,-16.51
17209.0625,-16.56
17221.25,-16.67
17233.4375,-16.72
17245.625,-16.79
17257.8125,-16.9
17270,-16.97
17282.1875,-17.02
17294.375,-17.07
17306.5625,-17.04
17318.75,-17.01
17330.9375,-17.01
17343.125,-16.96
17355.3125,-16.94
17367.5,-16.92
17379.6875,-16.82
17391.875,-16.78
17404.0625,-16.65
17416.25,-16.61
17428.4375,-16.55
17440.625,-16.51
17452.8125,-16.55
17465,-16.53
17477.1875,-16.61
17489.375,-16.62
17501.5625,-16.68
17513.75,-16.75
17525.9375,-16.83
17538.125,-16.87
17550.3125,-17.08
17562.5,-17.11
17574.6875,-17.22
17586.875,-17.32
17599.0625,-17.39
17611.25,-17.41
17623.4375,-17.5
17635.625,-17.37
17647.8125,-17.28
17660,-17.5
17672.1875,-17.48
17684.375,-17.4
17696.5625,-17.39
17708.75,-17.3
17720.9375,-17.26
17733.125,-17.21
17745.3125,-17.18
17757.5,-17.22
17769.6875,-17.14
17781.875,-16.96
17794.0625,-16.75
17806.25,-16.78
17818.4375,-16.7
17830.625,-16.74
17842.8125,-16.73
17855,-16.74
17867.1875,-16.89
17879.375,-17.1
17891.5625,-17.38
17903.75,-17.46
17915.9375,-17.75
17928.125,-17.9
17940.3125,-18.18
17952.5,-18.36
17964.6875,-18.44
17976.875,-18.58
17989.0625,-18.7
18001.25,-18.67
18013.4375,-18.55
18025.625,-18.54
18037.8125,-18.3
18050,-18.04
18062.1875,-17.86
18074.375,-17.63
18086.5625,-17.44
18098.75,-17.32
18110.9375,-17.24
18123.125,-17.31
18135.3125,-17.35
18147.5,-17.57
18159.6875,-17.71
18171.875,-17.93
18184.0625,-17.99
18196.25,-18.18
18208.4375,-18.33
18220.625,-18.41
18232.8125,-18.36
18245,-18.4
18257.1875,-18.33
18269.375,-18.18
18281.5625,-18.08
18293.75,-18.09
18305.9375,-17.96
18318.125,-17.78
18330.3125,-17.88
18342.5,-17.77
18354.6875,-17.8
18366.875,-17.8
18379.0625,-17.85
18391.25,-17.82
18403.4375,-17.85
18415.625,-17.86
18427.8125,-17.94
18440,-17.74
18452.1875,-17.66
18464.375,-17.68
18476.5625,-17.67
18488.75,-17.7
18500.9375,-17.63
18513.125,-17.77
18525.3125,-17.83
18537.5,-17.97
18549.6875,-18.07
18561.875,-18.28
18574.0625,-18.52
18586.25,-18.65
18598.4375,-18.95
18610.625,-19.02
18622.8125,-18.94
18635,-18.93
18647.1875,-18.84
18659.375,-18.8
18671.5625,-18.59
18683.75,-18.45
18695.9375,-18.26
18708.125,-18.11
18720.3125,-17.83
18732.5,-17.73
18744.6875,-17.48
18756.875,-17.51
18769.0625,-17.52
18781.25,-17.51
18793.4375,-17.7
18805.625,-17.8
18817.8125,-17.87
18830,-18.01
18842.1875,-18.19
18854.375,-18.35
18866.5625,-18.57
18878.75,-18.6
18890.9375,-18.62
18903.125,-18.68
18915.3125,-18.66
18927.5,-18.68
18939.6875,-18.61
18951.875,-18.56
18964.0625,-18.55
18976.25,-18.44
18988.4375,-18.31
19000.625,-18.22
19012.8125,-18.08
19025,-17.94
19037.1875,-17.85
19049.375,-17.75
19061.5625,-17.64
19073.75,-17.68
19085.9375,-17.63
19098.125,-17.71
19110.3125,-17.69
19122.5,-17.76
19134.6875,-17.99
19146.875,-18.09
19159.0625,-18.23
19171.25,-18.33
19183.4375,-18.45
19195.625,-18.44
19207.8125,-18.4
19220,-18.58
19232.1875,-18.55
19244.375,-18.64
19256.5625,-18.53
19268.75,-18.52
19280.9375,-18.35
19293.125,-18.23
19305.3125,-18.27
19317.5,-18.24
19329.6875,-18.2
19341.875,-18.2
19354.0625,-18.17
19366.25,-18.14
19378.4375,-18.1
19390.625,-18.04
19402.8125,-18.06
19415,-18.06
19427.1875,-18.11
19439.375,-18.1
19451.5625,-18.03
19463.75,-18.05
19475.9375,-18.07
19488.125,-18.12
19500.3125,-18.27
19512.5,-18.28
19524.6875,-18.41
19536.875,-18.38
19549.0625,-18.44
19561.25,-18.59
19573.4375,-18.69
19585.625,-18.65
19597.8125,-18.75
19610,-18.58
19622.1875,-18.4
19634.375,-18.25
19646.5625,-18.12
19658.75,-18.04
19670.9375,-17.91
19683.125,-17.84
19695.3125,-17.75
19707.5,-17.78
19719.6875,-17.81
19731.875,-17.88
19744.0625,-18.02
19756.25,-18.14
19768.4375,-18.43
19780.625,-18.55
19792.8125,-18.8
19805,-18.72
19817.1875,-18.98
19829.375,-18.92
19841.5625,-18.88
19853.75,-18.79
19865.9375,-18.79
19878.125,-18.84
19890.3125,-18.75
19902.5,-18.58
19914.6875,-18.49
19926.875,-18.49
19939.0625,-18.41
19951.25,-18.42
19963.4375,-18.43
19975.625,-18.41
19987.8125,-18.48
20000,-18.66
