Freq(MHz),Loss
500,-82.46
512.1875,-80.05
524.375,-80.45
536.5625,-83.41
548.75,-84.39
560.9375,-90.71
573.125,-82.07
585.3125,-81.04
597.5,-84.63
609.6875,-100.41
621.875,-93.61
634.0625,-89.23
646.25,-81.85
658.4375,-80.82
670.625,-89.25
682.8125,-88.26
695,-80.20
707.1875,-79.50
719.375,-79.38
731.5625,-81.33
743.75,-86.10
755.9375,-80.30
768.125,-80.11
780.3125,-80.64
792.5,-81.56
804.6875,-81.98
816.875,-86.19
829.0625,-79.71
841.25,-82.81
853.4375,-87.25
865.625,-82.15
877.8125,-76.19
890,-81.40
902.1875,-85.50
914.375,-81.98
926.5625,-94.07
938.75,-72.57
950.9375,-76.39
963.125,-74.52
975.3125,-79.01
987.5,-87.35
999.6875,-79.13
1011.875,-97.04
1024.0625,-95.92
1036.25,-91.40
1048.4375,-80.24
1060.625,-81.72
1072.8125,-79.37
1085,-81.93
1097.1875,-88.63
1109.375,-78.94
1121.5625,-84.25
1133.75,-79.74
1145.9375,-80.06
1158.125,-90.76
1170.3125,-82.96
1182.5,-77.35
1194.6875,-85.22
1206.875,-84.96
1219.0625,-81.96
1231.25,-76.40
1243.4375,-90.13
1255.625,-75.60
1267.8125,-80.28
1280,-89.69
1292.1875,-86.68
1304.375,-80.57
1316.5625,-82.95
1328.75,-81.29
1340.9375,-83.73
1353.125,-86.48
1365.3125,-79.17
1377.5,-84.33
1389.6875,-75.78
1401.875,-77.32
1414.0625,-82.54
1426.25,-85.46
1438.4375,-89.79
1450.625,-80.76
1462.8125,-81.43
1475,-80.32
1487.1875,-79.39
1499.375,-87.67
1511.5625,-79.47
1523.75,-80.38
1535.9375,-81.17
1548.125,-81.00
1560.3125,-82.35
1572.5,-76.98
1584.6875,-83.32
1596.875,-77.92
1609.0625,-86.85
1621.25,-86.30
1633.4375,-85.60
1645.625,-85.14
1657.8125,-84.07
1670,-88.85
1682.1875,-76.98
1694.375,-77.69
1706.5625,-87.09
1718.75,-77.17
1730.9375,-90.75
1743.125,-85.11
1755.3125,-87.25
1767.5,-88.13
1779.6875,-76.53
1791.875,-86.02
1804.0625,-93.72
1816.25,-84.19
1828.4375,-102.22
1840.625,-80.39
1852.8125,-78.07
1865,-77.26
1877.1875,-91.84
1889.375,-86.41
1901.5625,-77.83
1913.75,-80.41
1925.9375,-84.53
1938.125,-87.22
1950.3125,-87.40
1962.5,-88.64
1974.6875,-84.53
1986.875,-79.62
1999.0625,-76.18
2011.25,-79.30
2023.4375,-77.46
2035.625,-73.06
2047.8125,-78.65
2060,-79.84
2072.1875,-86.76
2084.375,-78.81
2096.5625,-81.50
2108.75,-82.28
2120.9375,-79.52
2133.125,-78.20
2145.3125,-82.98
2157.5,-77.45
2169.6875,-74.80
2181.875,-82.86
2194.0625,-90.63
2206.25,-84.11
2218.4375,-81.87
2230.625,-81.95
2242.8125,-76.33
2255,-91.69
2267.1875,-82.64
2279.375,-86.31
2291.5625,-83.22
2303.75,-92.27
2315.9375,-86.08
2328.125,-84.23
2340.3125,-79.92
2352.5,-78.37
2364.6875,-92.06
2376.875,-94.29
2389.0625,-84.17
2401.25,-76.72
2413.4375,-76.85
2425.625,-89.72
2437.8125,-83.51
2450,-79.19
2462.1875,-91.07
2474.375,-85.90
2486.5625,-78.16
2498.75,-81.22
2510.9375,-87.81
2523.125,-81.93
2535.3125,-86.63
2547.5,-76.25
2559.6875,-76.01
2571.875,-87.49
2584.0625,-79.14
2596.25,-79.95
2608.4375,-82.23
2620.625,-76.44
2632.8125,-83.09
2645,-79.19
2657.1875,-74.79
2669.375,-68.13
2681.5625,-67.12
2693.75,-59.94
2705.9375,-55.25
2718.125,-49.90
2730.3125,-43.96
2742.5,-37.52
2754.6875,-30.50
2766.875,-22.73
2779.0625,-14.67
2791.25,-9.75
2803.4375,-8.31
2815.625,-7.29
2827.8125,-6.66
2840,-6.37
2852.1875,-6.20
2864.375,-6.03
2876.5625,-5.88
2888.75,-5.70
2900.9375,-5.48
2913.125,-5.27
2925.3125,-5.15
2937.5,-5.12
2949.6875,-5.12
2961.875,-5.09
2974.0625,-5.03
2986.25,-4.96
2998.4375,-4.88
3010.625,-4.78
3022.8125,-4.71
3035,-4.72
3047.1875,-4.76
3059.375,-4.78
3071.5625,-4.75
3083.75,-4.72
3095.9375,-4.68
3108.125,-4.65
3120.3125,-4.63
3132.5,-4.61
3144.6875,-4.62
3156.875,-4.61
3169.0625,-4.59
3181.25,-4.57
3193.4375,-4.56
3205.625,-4.55
3217.8125,-4.51
3230,-4.45
3242.1875,-4.40
3254.375,-4.40
3266.5625,-4.41
3278.75,-4.42
3290.9375,-4.42
3303.125,-4.42
3315.3125,-4.44
3327.5,-4.44
3339.6875,-4.42
3351.875,-4.38
3364.0625,-4.35
3376.25,-4.34
3388.4375,-4.35
3400.625,-4.35
3412.8125,-4.37
3425,-4.40
3437.1875,-4.44
3449.375,-4.44
3461.5625,-4.43
3473.75,-4.39
3485.9375,-4.36
3498.125,-4.36
3510.3125,-4.36
3522.5,-4.36
3534.6875,-4.38
3546.875,-4.42
3559.0625,-4.45
3571.25,-4.46
3583.4375,-4.44
3595.625,-4.40
3607.8125,-4.38
3620,-4.38
3632.1875,-4.38
3644.375,-4.39
3656.5625,-4.41
3668.75,-4.47
3680.9375,-4.55
3693.125,-4.61
3705.3125,-4.63
3717.5,-4.62
3729.6875,-4.60
3741.875,-4.60
3754.0625,-4.59
3766.25,-4.55
3778.4375,-4.49
3790.625,-4.43
3802.8125,-4.40
3815,-4.39
3827.1875,-4.40
3839.375,-4.42
3851.5625,-4.47
3863.75,-4.53
3875.9375,-4.58
3888.125,-4.59
3900.3125,-4.56
3912.5,-4.53
3924.6875,-4.50
3936.875,-4.50
3949.0625,-4.49
3961.25,-4.47
3973.4375,-4.45
3985.625,-4.45
3997.8125,-4.49
4010,-4.51
4022.1875,-4.52
4034.375,-4.50
4046.5625,-4.48
4058.75,-4.48
4070.9375,-4.48
4083.125,-4.48
4095.3125,-4.47
4107.5,-4.47
4119.6875,-4.48
4131.875,-4.51
4144.0625,-4.54
4156.25,-4.56
4168.4375,-4.59
4180.625,-4.62
4192.8125,-4.64
4205,-4.65
4217.1875,-4.62
4229.375,-4.57
4241.5625,-4.55
4253.75,-4.54
4265.9375,-4.54
4278.125,-4.54
4290.3125,-4.57
4302.5,-4.62
4314.6875,-4.70
4326.875,-4.78
4339.0625,-4.83
4351.25,-4.85
4363.4375,-4.85
4375.625,-4.84
4387.8125,-4.83
4400,-4.82
4412.1875,-4.77
4424.375,-4.70
4436.5625,-4.65
4448.75,-4.62
4460.9375,-4.62
4473.125,-4.65
4485.3125,-4.68
4497.5,-4.73
4509.6875,-4.80
4521.875,-4.87
4534.0625,-4.92
4546.25,-4.95
4558.4375,-4.96
4570.625,-4.96
4582.8125,-4.96
4595,-4.93
4607.1875,-4.90
4619.375,-4.87
4631.5625,-4.85
4643.75,-4.85
4655.9375,-4.86
4668.125,-4.86
4680.3125,-4.86
4692.5,-4.86
4704.6875,-4.89
4716.875,-4.91
4729.0625,-4.92
4741.25,-4.90
4753.4375,-4.87
4765.625,-4.85
4777.8125,-4.83
4790,-4.83
4802.1875,-4.82
4814.375,-4.83
4826.5625,-4.84
4838.75,-4.86
4850.9375,-4.92
4863.125,-4.97
4875.3125,-5.00
4887.5,-5.02
4899.6875,-5.04
4911.875,-5.07
4924.0625,-5.10
4936.25,-5.12
4948.4375,-5.10
4960.625,-5.06
4972.8125,-5.02
4985,-5.00
4997.1875,-4.99
5009.375,-4.98
5021.5625,-4.97
5033.75,-4.93
5045.9375,-4.92
5058.125,-4.91
5070.3125,-4.91
5082.5,-4.92
5094.6875,-4.93
5106.875,-4.94
5119.0625,-4.97
5131.25,-5.01
5143.4375,-5.03
5155.625,-5.03
5167.8125,-5.03
5180,-5.03
5192.1875,-5.04
5204.375,-5.05
5216.5625,-5.05
5228.75,-5.04
5240.9375,-5.06
5253.125,-5.09
5265.3125,-5.13
5277.5,-5.16
5289.6875,-5.18
5301.875,-5.21
5314.0625,-5.25
5326.25,-5.30
5338.4375,-5.35
5350.625,-5.34
5362.8125,-5.31
5375,-5.26
5387.1875,-5.21
5399.375,-5.18
5411.5625,-5.15
5423.75,-5.11
5435.9375,-5.08
5448.125,-5.09
5460.3125,-5.13
5472.5,-5.20
5484.6875,-5.28
5496.875,-5.36
5509.0625,-5.46
5521.25,-5.55
5533.4375,-5.64
5545.625,-5.69
5557.8125,-5.68
5570,-5.62
5582.1875,-5.55
5594.375,-5.48
5606.5625,-5.42
5618.75,-5.36
5630.9375,-5.30
5643.125,-5.26
5655.3125,-5.25
5667.5,-5.29
5679.6875,-5.32
5691.875,-5.35
5704.0625,-5.40
5716.25,-5.48
5728.4375,-5.55
5740.625,-5.60
5752.8125,-5.57
5765,-5.52
5777.1875,-5.42
5789.375,-5.36
5801.5625,-5.31
5813.75,-5.26
5825.9375,-5.23
5838.125,-5.19
5850.3125,-5.24
5862.5,-5.32
5874.6875,-5.41
5886.875,-5.48
5899.0625,-5.54
5911.25,-5.58
5923.4375,-5.65
5935.625,-5.72
5947.8125,-5.75
5960,-5.71
5972.1875,-5.61
5984.375,-5.49
5996.5625,-5.41
6008.75,-5.37
6020.9375,-5.32
6033.125,-5.30
6045.3125,-5.29
6057.5,-5.32
6069.6875,-5.39
6081.875,-5.46
6094.0625,-5.51
6106.25,-5.54
6118.4375,-5.59
6130.625,-5.63
6142.8125,-5.64
6155,-5.62
6167.1875,-5.54
6179.375,-5.47
6191.5625,-5.43
6203.75,-5.42
6215.9375,-5.44
6228.125,-5.44
6240.3125,-5.46
6252.5,-5.53
6264.6875,-5.65
6276.875,-5.75
6289.0625,-5.79
6301.25,-5.79
6313.4375,-5.78
6325.625,-5.79
6337.8125,-5.84
6350,-5.84
6362.1875,-5.76
6374.375,-5.64
6386.5625,-5.56
6398.75,-5.53
6410.9375,-5.55
6423.125,-5.57
6435.3125,-5.56
6447.5,-5.58
6459.6875,-5.65
6471.875,-5.76
6484.0625,-5.84
6496.25,-5.86
6508.4375,-5.85
6520.625,-5.85
6532.8125,-5.89
6545,-5.92
6557.1875,-5.93
6569.375,-5.87
6581.5625,-5.79
6593.75,-5.75
6605.9375,-5.75
6618.125,-5.76
6630.3125,-5.75
6642.5,-5.73
6654.6875,-5.73
6666.875,-5.76
6679.0625,-5.82
6691.25,-5.83
6703.4375,-5.81
6715.625,-5.78
6727.8125,-5.78
6740,-5.81
6752.1875,-5.83
6764.375,-5.81
6776.5625,-5.75
6788.75,-5.71
6800.9375,-5.71
6813.125,-5.75
6825.3125,-5.76
6837.5,-5.75
6849.6875,-5.72
6861.875,-5.75
6874.0625,-5.81
6886.25,-5.86
6898.4375,-5.88
6910.625,-5.86
6922.8125,-5.85
6935,-5.90
6947.1875,-5.98
6959.375,-6.02
6971.5625,-6.00
6983.75,-5.94
6995.9375,-5.91
7008.125,-5.92
7020.3125,-5.95
7032.5,-5.92
7044.6875,-5.85
7056.875,-5.77
7069.0625,-5.73
7081.25,-5.73
7093.4375,-5.74
7105.625,-5.74
7117.8125,-5.74
7130,-5.77
7142.1875,-5.85
7154.375,-5.93
7166.5625,-5.96
7178.75,-5.95
7190.9375,-5.94
7203.125,-5.96
7215.3125,-6.01
7227.5,-6.03
7239.6875,-5.98
7251.875,-5.89
7264.0625,-5.82
7276.25,-5.81
7288.4375,-5.81
7300.625,-5.82
7312.8125,-5.81
7325,-5.81
7337.1875,-5.88
7349.375,-5.98
7361.5625,-6.05
7373.75,-6.07
7385.9375,-6.05
7398.125,-6.04
7410.3125,-6.06
7422.5,-6.09
7434.6875,-6.09
7446.875,-6.02
7459.0625,-5.94
7471.25,-5.88
7483.4375,-5.86
7495.625,-5.87
7507.8125,-5.88
7520,-5.89
7532.1875,-5.95
7544.375,-6.05
7556.5625,-6.17
7568.75,-6.23
7580.9375,-6.25
7593.125,-6.25
7605.3125,-6.30
7617.5,-6.37
7629.6875,-6.41
7641.875,-6.38
7654.0625,-6.27
7666.25,-6.16
7678.4375,-6.10
7690.625,-6.07
7702.8125,-6.05
7715,-6.01
7727.1875,-5.97
7739.375,-5.96
7751.5625,-5.98
7763.75,-6.01
7775.9375,-6.02
7788.125,-6.03
7800.3125,-6.04
7812.5,-6.09
7824.6875,-6.15
7836.875,-6.19
7849.0625,-6.16
7861.25,-6.11
7873.4375,-6.08
7885.625,-6.12
7897.8125,-6.16
7910,-6.18
7922.1875,-6.15
7934.375,-6.11
7946.5625,-6.13
7958.75,-6.17
7970.9375,-6.20
7983.125,-6.19
7995.3125,-6.15
8007.5,-6.12
8019.6875,-6.13
8031.875,-6.15
8044.0625,-6.15
8056.25,-6.12
8068.4375,-6.09
8080.625,-6.08
8092.8125,-6.10
8105,-6.12
8117.1875,-6.10
8129.375,-6.06
8141.5625,-6.05
8153.75,-6.07
8165.9375,-6.10
8178.125,-6.11
8190.3125,-6.09
8202.5,-6.08
8214.6875,-6.13
8226.875,-6.22
8239.0625,-6.30
8251.25,-6.32
8263.4375,-6.31
8275.625,-6.32
8287.8125,-6.38
8300,-6.45
8312.1875,-6.48
8324.375,-6.44
8336.5625,-6.36
8348.75,-6.27
8360.9375,-6.23
8373.125,-6.21
8385.3125,-6.20
8397.5,-6.17
8409.6875,-6.14
8421.875,-6.13
8434.0625,-6.16
8446.25,-6.17
8458.4375,-6.20
8470.625,-6.25
8482.8125,-6.35
8495,-6.46
8507.1875,-6.54
8519.375,-6.56
8531.5625,-6.54
8543.75,-6.48
8555.9375,-6.46
8568.125,-6.47
8580.3125,-6.48
8592.5,-6.42
8604.6875,-6.36
8616.875,-6.32
8629.0625,-6.30
8641.25,-6.30
8653.4375,-6.27
8665.625,-6.26
8677.8125,-6.26
8690,-6.28
8702.1875,-6.34
8714.375,-6.38
8726.5625,-6.37
8738.75,-6.33
8750.9375,-6.32
8763.125,-6.32
8775.3125,-6.35
8787.5,-6.36
8799.6875,-6.33
8811.875,-6.30
8824.0625,-6.32
8836.25,-6.38
8848.4375,-6.42
8860.625,-6.42
8872.8125,-6.42
8885,-6.41
8897.1875,-6.47
8909.375,-6.54
8921.5625,-6.56
8933.75,-6.56
8945.9375,-6.48
8958.125,-6.42
8970.3125,-6.39
8982.5,-6.37
8994.6875,-6.35
9006.875,-6.33
9019.0625,-6.31
9031.25,-6.26
9043.4375,-6.26
9055.625,-6.27
9067.8125,-6.26
9080,-6.29
9092.1875,-6.32
9104.375,-6.38
9116.5625,-6.39
9128.75,-6.40
9140.9375,-6.39
9153.125,-6.39
9165.3125,-6.43
9177.5,-6.46
9189.6875,-6.50
9201.875,-6.47
9214.0625,-6.44
9226.25,-6.42
9238.4375,-6.48
9250.625,-6.53
9262.8125,-6.49
9275,-6.46
9287.1875,-6.42
9299.375,-6.37
9311.5625,-6.35
9323.75,-6.38
9335.9375,-6.41
9348.125,-6.41
9360.3125,-6.43
9372.5,-6.46
9384.6875,-6.47
9396.875,-6.49
9409.0625,-6.49
9421.25,-6.52
9433.4375,-6.61
9445.625,-6.68
9457.8125,-6.75
9470,-6.72
9482.1875,-6.66
9494.375,-6.62
9506.5625,-6.63
9518.75,-6.64
9530.9375,-6.64
9543.125,-6.61
9555.3125,-6.57
9567.5,-6.55
9579.6875,-6.53
9591.875,-6.51
9604.0625,-6.52
9616.25,-6.52
9628.4375,-6.53
9640.625,-6.59
9652.8125,-6.62
9665,-6.65
9677.1875,-6.64
9689.375,-6.59
9701.5625,-6.59
9713.75,-6.60
9725.9375,-6.61
9738.125,-6.64
9750.3125,-6.62
9762.5,-6.61
9774.6875,-6.62
9786.875,-6.62
9799.0625,-6.62
9811.25,-6.60
9823.4375,-6.62
9835.625,-6.66
9847.8125,-6.73
9860,-6.74
9872.1875,-6.72
9884.375,-6.69
9896.5625,-6.63
9908.75,-6.61
9920.9375,-6.57
9933.125,-6.60
9945.3125,-6.59
9957.5,-6.58
9969.6875,-6.58
9981.875,-6.57
9994.0625,-6.61
10006.25,-6.61
10018.4375,-6.61
10030.625,-6.65
10042.8125,-6.73
10055,-6.75
10067.1875,-6.77
10079.375,-6.73
10091.5625,-6.74
10103.75,-6.70
10115.9375,-6.70
10128.125,-6.72
10140.3125,-6.72
10152.5,-6.69
10164.6875,-6.65
10176.875,-6.63
10189.0625,-6.63
10201.25,-6.65
10213.4375,-6.61
10225.625,-6.62
10237.8125,-6.59
10250,-6.60
10262.1875,-6.61
10274.375,-6.62
10286.5625,-6.63
10298.75,-6.66
10310.9375,-6.66
10323.125,-6.68
10335.3125,-6.70
10347.5,-6.69
10359.6875,-6.69
10371.875,-6.72
10384.0625,-6.74
10396.25,-6.77
10408.4375,-6.73
10420.625,-6.72
10432.8125,-6.68
10445,-6.68
10457.1875,-6.73
10469.375,-6.71
10481.5625,-6.72
10493.75,-6.75
10505.9375,-6.79
10518.125,-6.83
10530.3125,-6.86
10542.5,-6.87
10554.6875,-6.89
10566.875,-6.92
10579.0625,-6.98
10591.25,-7.03
10603.4375,-7.05
10615.625,-7.02
10627.8125,-6.94
10640,-6.92
10652.1875,-6.90
10664.375,-6.91
10676.5625,-6.92
10688.75,-6.94
10700.9375,-6.91
10713.125,-6.93
10725.3125,-6.96
10737.5,-6.94
10749.6875,-6.96
10761.875,-6.96
10774.0625,-6.99
10786.25,-7.00
10798.4375,-7.04
10810.625,-7.03
10822.8125,-7.00
10835,-6.96
10847.1875,-6.92
10859.375,-6.95
10871.5625,-6.96
10883.75,-6.95
10895.9375,-6.97
10908.125,-7.01
10920.3125,-7.07
10932.5,-7.13
10944.6875,-7.13
10956.875,-7.15
10969.0625,-7.19
10981.25,-7.24
10993.4375,-7.27
11005.625,-7.26
11017.8125,-7.26
11030,-7.18
11042.1875,-7.11
11054.375,-7.08
11066.5625,-7.07
11078.75,-7.07
11090.9375,-7.03
11103.125,-7.01
11115.3125,-7.00
11127.5,-7.03
11139.6875,-7.08
11151.875,-7.11
11164.0625,-7.13
11176.25,-7.20
11188.4375,-7.28
11200.625,-7.33
11212.8125,-7.39
11225,-7.37
11237.1875,-7.33
11249.375,-7.34
11261.5625,-7.31
11273.75,-7.32
11285.9375,-7.29
11298.125,-7.25
11310.3125,-7.19
11322.5,-7.16
11334.6875,-7.13
11346.875,-7.12
11359.0625,-7.13
11371.25,-7.15
11383.4375,-7.18
11395.625,-7.26
11407.8125,-7.33
11420,-7.36
11432.1875,-7.39
11444.375,-7.39
11456.5625,-7.40
11468.75,-7.44
11480.9375,-7.46
11493.125,-7.42
11505.3125,-7.42
11517.5,-7.40
11529.6875,-7.40
11541.875,-7.37
11554.0625,-7.38
11566.25,-7.35
11578.4375,-7.31
11590.625,-7.33
11602.8125,-7.33
11615,-7.37
11627.1875,-7.38
11639.375,-7.37
11651.5625,-7.39
11663.75,-7.41
11675.9375,-7.46
11688.125,-7.50
11700.3125,-7.48
11712.5,-7.45
11724.6875,-7.42
11736.875,-7.45
11749.0625,-7.47
11761.25,-7.48
11773.4375,-7.43
11785.625,-7.43
11797.8125,-7.41
11810,-7.45
11822.1875,-7.46
11834.375,-7.50
11846.5625,-7.51
11858.75,-7.51
11870.9375,-7.55
11883.125,-7.59
11895.3125,-7.61
11907.5,-7.59
11919.6875,-7.58
11931.875,-7.58
11944.0625,-7.57
11956.25,-7.55
11968.4375,-7.54
11980.625,-7.47
11992.8125,-7.42
12005,-7.38
12017.1875,-7.40
12029.375,-7.40
12041.5625,-7.43
12053.75,-7.48
12065.9375,-7.57
12078.125,-7.62
12090.3125,-7.70
12102.5,-7.74
12114.6875,-7.78
12126.875,-7.82
12139.0625,-7.92
12151.25,-7.98
12163.4375,-7.97
12175.625,-7.91
12187.8125,-7.84
12200,-7.73
12212.1875,-7.67
12224.375,-7.62
12236.5625,-7.60
12248.75,-7.56
12260.9375,-7.53
12273.125,-7.56
12285.3125,-7.62
12297.5,-7.69
12309.6875,-7.75
12321.875,-7.83
12334.0625,-7.92
12346.25,-8.02
12358.4375,-8.12
12370.625,-8.20
12382.8125,-8.18
12395,-8.16
12407.1875,-8.10
12419.375,-8.06
12431.5625,-8.05
12443.75,-8.00
12455.9375,-7.94
12468.125,-7.88
12480.3125,-7.88
12492.5,-7.88
12504.6875,-7.87
12516.875,-7.92
12529.0625,-7.96
12541.25,-8.04
12553.4375,-8.20
12565.625,-8.27
12577.8125,-8.31
12590,-8.27
12602.1875,-8.22
12614.375,-8.18
12626.5625,-8.14
12638.75,-8.11
12650.9375,-8.07
12663.125,-8.00
12675.3125,-7.94
12687.5,-7.92
12699.6875,-7.94
12711.875,-7.96
12724.0625,-8.01
12736.25,-8.12
12748.4375,-8.22
12760.625,-8.38
12772.8125,-8.48
12785,-8.50
12797.1875,-8.45
12809.375,-8.38
12821.5625,-8.32
12833.75,-8.30
12845.9375,-8.27
12858.125,-8.17
12870.3125,-8.06
12882.5,-7.97
12894.6875,-7.90
12906.875,-7.89
12919.0625,-7.91
12931.25,-7.95
12943.4375,-8.04
12955.625,-8.15
12967.8125,-8.27
12980,-8.37
12992.1875,-8.40
13004.375,-8.43
13016.5625,-8.45
13028.75,-8.46
13040.9375,-8.52
13053.125,-8.49
13065.3125,-8.43
13077.5,-8.36
13089.6875,-8.29
13101.875,-8.20
13114.0625,-8.16
13126.25,-8.11
13138.4375,-8.07
13150.625,-8.03
13162.8125,-8.05
13175,-7.99
13187.1875,-8.01
13199.375,-8.00
13211.5625,-7.98
13223.75,-7.97
13235.9375,-7.99
13248.125,-8.00
13260.3125,-8.04
13272.5,-8.05
13284.6875,-8.09
13296.875,-8.12
13309.0625,-8.18
13321.25,-8.19
13333.4375,-8.22
13345.625,-8.22
13357.8125,-8.21
13370,-8.26
13382.1875,-8.24
13394.375,-8.23
13406.5625,-8.17
13418.75,-8.15
13430.9375,-8.13
13443.125,-8.09
13455.3125,-8.08
13467.5,-8.08
13479.6875,-8.12
13491.875,-8.16
13504.0625,-8.15
13516.25,-8.15
13528.4375,-8.23
13540.625,-8.27
13552.8125,-8.23
13565,-8.20
13577.1875,-8.12
13589.375,-8.17
13601.5625,-8.19
13613.75,-8.16
13625.9375,-8.13
13638.125,-8.10
13650.3125,-8.12
13662.5,-8.19
13674.6875,-8.22
13686.875,-8.24
13699.0625,-8.32
13711.25,-8.41
13723.4375,-8.46
13735.625,-8.48
13747.8125,-8.44
13760,-8.33
13772.1875,-8.30
13784.375,-8.27
13796.5625,-8.18
13808.75,-8.14
13820.9375,-8.08
13833.125,-8.06
13845.3125,-8.03
13857.5,-8.04
13869.6875,-8.10
13881.875,-8.16
13894.0625,-8.23
13906.25,-8.30
13918.4375,-8.42
13930.625,-8.56
13942.8125,-8.57
13955,-8.57
13967.1875,-8.54
13979.375,-8.48
13991.5625,-8.44
14003.75,-8.39
14015.9375,-8.36
14028.125,-8.23
14040.3125,-8.20
14052.5,-8.16
14064.6875,-8.14
14076.875,-8.12
14089.0625,-8.14
14101.25,-8.14
14113.4375,-8.16
14125.625,-8.22
14137.8125,-8.26
14150,-8.25
14162.1875,-8.25
14174.375,-8.22
14186.5625,-8.24
14198.75,-8.23
14210.9375,-8.21
14223.125,-8.22
14235.3125,-8.24
14247.5,-8.25
14259.6875,-8.33
14271.875,-8.40
14284.0625,-8.38
14296.25,-8.40
14308.4375,-8.43
14320.625,-8.45
14332.8125,-8.54
14345,-8.53
14357.1875,-8.54
14369.375,-8.49
14381.5625,-8.42
14393.75,-8.32
14405.9375,-8.23
14418.125,-8.25
14430.3125,-8.20
14442.5,-8.19
14454.6875,-8.21
14466.875,-8.24
14479.0625,-8.30
14491.25,-8.34
14503.4375,-8.36
14515.625,-8.39
14527.8125,-8.42
14540,-8.45
14552.1875,-8.50
14564.375,-8.49
14576.5625,-8.48
14588.75,-8.38
14600.9375,-8.46
14613.125,-8.46
14625.3125,-8.48
14637.5,-8.55
14649.6875,-8.54
14661.875,-8.72
14674.0625,-8.83
14686.25,-8.88
14698.4375,-8.94
14710.625,-8.89
14722.8125,-8.86
14735,-8.92
14747.1875,-8.88
14759.375,-8.89
14771.5625,-8.82
14783.75,-8.75
14795.9375,-8.63
14808.125,-8.56
14820.3125,-8.56
14832.5,-8.57
14844.6875,-8.58
14856.875,-8.62
14869.0625,-8.77
14881.25,-8.96
14893.4375,-9.05
14905.625,-9.09
14917.8125,-9.15
14930,-9.19
14942.1875,-9.27
14954.375,-9.37
14966.5625,-9.42
14978.75,-9.33
14990.9375,-9.19
15003.125,-9.03
15015.3125,-8.92
15027.5,-8.76
15039.6875,-8.69
15051.875,-8.61
15064.0625,-8.57
15076.25,-8.54
15088.4375,-8.57
15100.625,-8.57
15112.8125,-8.60
15125,-8.60
15137.1875,-8.66
15149.375,-8.68
15161.5625,-8.76
15173.75,-8.78
15185.9375,-8.81
15198.125,-8.77
15210.3125,-8.70
15222.5,-8.69
15234.6875,-8.63
15246.875,-8.62
15259.0625,-8.56
15271.25,-8.58
15283.4375,-8.60
15295.625,-8.65
15307.8125,-8.66
15320,-8.65
15332.1875,-8.66
15344.375,-8.67
15356.5625,-8.73
15368.75,-8.78
15380.9375,-8.80
15393.125,-8.76
15405.3125,-8.71
15417.5,-8.70
15429.6875,-8.67
15441.875,-8.69
15454.0625,-8.69
15466.25,-8.68
15478.4375,-8.70
15490.625,-8.70
15502.8125,-8.76
15515,-8.80
15527.1875,-8.83
15539.375,-8.93
15551.5625,-8.98
15563.75,-9.13
15575.9375,-9.18
15588.125,-9.28
15600.3125,-9.37
15612.5,-9.36
15624.6875,-9.45
15636.875,-9.56
15649.0625,-9.59
15661.25,-9.57
15673.4375,-9.53
15685.625,-9.52
15697.8125,-9.51
15710,-9.47
15722.1875,-9.47
15734.375,-9.41
15746.5625,-9.35
15758.75,-9.25
15770.9375,-9.26
15783.125,-9.28
15795.3125,-9.29
15807.5,-9.37
15819.6875,-9.48
15831.875,-9.61
15844.0625,-9.71
15856.25,-9.83
15868.4375,-9.85
15880.625,-9.90
15892.8125,-9.88
15905,-9.96
15917.1875,-9.97
15929.375,-9.86
15941.5625,-9.77
15953.75,-9.60
15965.9375,-9.48
15978.125,-9.44
15990.3125,-9.41
16002.5,-9.42
16014.6875,-9.45
16026.875,-9.51
16039.0625,-9.66
16051.25,-9.82
16063.4375,-9.99
16075.625,-10.00
16087.8125,-10.03
16100,-10.06
16112.1875,-10.13
16124.375,-10.20
16136.5625,-10.16
16148.75,-10.06
16160.9375,-9.90
16173.125,-9.75
16185.3125,-9.68
16197.5,-9.63
16209.6875,-9.66
16221.875,-9.73
16234.0625,-9.85
16246.25,-10.00
16258.4375,-10.17
16270.625,-10.28
16282.8125,-10.42
16295,-10.52
16307.1875,-10.58
16319.375,-10.68
16331.5625,-10.70
16343.75,-10.70
16355.9375,-10.57
16368.125,-10.45
16380.3125,-10.32
16392.5,-10.23
16404.6875,-10.10
16416.875,-10.07
16429.0625,-10.02
16441.25,-10.04
16453.4375,-10.12
16465.625,-10.17
16477.8125,-10.18
16490,-10.29
16502.1875,-10.38
16514.375,-10.50
16526.5625,-10.61
16538.75,-10.63
16550.9375,-10.62
16563.125,-10.53
16575.3125,-10.50
16587.5,-10.50
16599.6875,-10.50
16611.875,-10.47
16624.0625,-10.45
16636.25,-10.48
16648.4375,-10.57
16660.625,-10.72
16672.8125,-10.77
16685,-10.83
16697.1875,-10.89
16709.375,-10.90
16721.5625,-11.02
16733.75,-11.08
16745.9375,-11.13
16758.125,-11.09
16770.3125,-11.01
16782.5,-10.91
16794.6875,-10.86
16806.875,-10.85
16819.0625,-10.76
16831.25,-10.75
16843.4375,-10.67
16855.625,-10.60
16867.8125,-10.61
16880,-10.60
16892.1875,-10.62
16904.375,-10.64
16916.5625,-10.70
16928.75,-10.83
16940.9375,-10.90
16953.125,-10.88
16965.3125,-10.99
16977.5,-11.09
16989.6875,-11.15
17001.875,-11.26
17014.0625,-11.32
17026.25,-11.30
17038.4375,-11.38
17050.625,-11.40
17062.8125,-11.42
17075,-11.38
17087.1875,-11.30
17099.375,-11.24
17111.5625,-11.11
17123.75,-11.03
17135.9375,-11.01
17148.125,-10.93
17160.3125,-10.90
17172.5,-10.86
17184.6875,-10.80
17196.875,-10.92
17209.0625,-10.99
17221.25,-11.07
17233.4375,-11.15
17245.625,-11.28
17257.8125,-11.38
17270,-11.50
17282.1875,-11.62
17294.375,-11.67
17306.5625,-11.68
17318.75,-11.66
17330.9375,-11.60
17343.125,-11.58
17355.3125,-11.56
17367.5,-11.50
17379.6875,-11.37
17391.875,-11.30
17404.0625,-11.21
17416.25,-11.16
17428.4375,-11.06
17440.625,-11.05
17452.8125,-11.07
17465,-11.10
17477.1875,-11.15
17489.375,-11.18
17501.5625,-11.26
17513.75,-11.31
17525.9375,-11.33
17538.125,-11.52
17550.3125,-11.60
17562.5,-11.60
17574.6875,-11.73
17586.875,-11.79
17599.0625,-11.88
17611.25,-11.91
17623.4375,-11.99
17635.625,-11.98
17647.8125,-12.00
17660,-12.10
17672.1875,-12.03
17684.375,-12.04
17696.5625,-12.06
17708.75,-11.96
17720.9375,-11.83
17733.125,-11.77
17745.3125,-11.74
17757.5,-11.81
17769.6875,-11.64
17781.875,-11.53
17794.0625,-11.44
17806.25,-11.32
17818.4375,-11.26
17830.625,-11.32
17842.8125,-11.26
17855,-11.37
17867.1875,-11.46
17879.375,-11.71
17891.5625,-11.80
17903.75,-12.01
17915.9375,-12.20
17928.125,-12.31
17940.3125,-12.50
17952.5,-12.74
17964.6875,-12.86
17976.875,-12.96
17989.0625,-13.05
18001.25,-13.03
18013.4375,-12.98
18025.625,-12.91
18037.8125,-12.71
18050,-12.53
18062.1875,-12.35
18074.375,-12.16
18086.5625,-11.99
18098.75,-11.90
18110.9375,-11.77
18123.125,-11.83
18135.3125,-11.86
18147.5,-11.93
18159.6875,-12.11
18171.875,-12.29
18184.0625,-12.47
18196.25,-12.61
18208.4375,-12.79
18220.625,-12.84
18232.8125,-12.97
18245,-12.93
18257.1875,-12.90
18269.375,-12.92
18281.5625,-12.91
18293.75,-12.84
18305.9375,-12.77
18318.125,-12.62
18330.3125,-12.59
18342.5,-12.45
18354.6875,-12.33
18366.875,-12.34
18379.0625,-12.24
18391.25,-12.23
18403.4375,-12.22
18415.625,-12.27
18427.8125,-12.29
18440,-12.28
18452.1875,-12.30
18464.375,-12.36
18476.5625,-12.46
18488.75,-12.55
18500.9375,-12.44
18513.125,-12.56
18525.3125,-12.58
18537.5,-12.64
18549.6875,-12.57
18561.875,-12.65
18574.0625,-12.75
18586.25,-12.91
18598.4375,-13.12
18610.625,-13.25
18622.8125,-13.23
18635,-13.27
18647.1875,-13.27
18659.375,-13.42
18671.5625,-13.44
18683.75,-13.36
18695.9375,-13.19
18708.125,-13.06
18720.3125,-12.81
18732.5,-12.71
18744.6875,-12.43
18756.875,-12.37
18769.0625,-12.17
18781.25,-12.13
18793.4375,-12.19
18805.625,-12.39
18817.8125,-12.63
18830,-12.83
18842.1875,-13.16
18854.375,-13.48
18866.5625,-13.84
18878.75,-13.97
18890.9375,-14.01
18903.125,-14.12
18915.3125,-14.17
18927.5,-14.14
18939.6875,-13.91
18951.875,-13.70
18964.0625,-13.44
18976.25,-13.15
18988.4375,-12.92
19000.625,-12.73
19012.8125,-12.55
19025,-12.43
19037.1875,-12.45
19049.375,-12.50
19061.5625,-12.54
19073.75,-12.69
19085.9375,-12.79
19098.125,-12.86
19110.3125,-12.83
19122.5,-12.86
19134.6875,-12.97
19146.875,-12.94
19159.0625,-12.93
19171.25,-12.87
19183.4375,-12.82
19195.625,-12.93
19207.8125,-12.88
19220,-12.95
19232.1875,-13.09
19244.375,-13.32
19256.5625,-13.43
19268.75,-13.62
19280.9375,-13.59
19293.125,-13.60
19305.3125,-13.60
19317.5,-13.54
19329.6875,-13.39
19341.875,-13.28
19354.0625,-13.13
19366.25,-12.87
19378.4375,-12.71
19390.625,-12.59
19402.8125,-12.50
19415,-12.51
19427.1875,-12.49
19439.375,-12.60
19451.5625,-12.80
19463.75,-12.96
19475.9375,-13.09
19488.125,-13.17
19500.3125,-13.17
19512.5,-13.27
19524.6875,-13.23
19536.875,-13.24
19549.0625,-13.20
19561.25,-13.18
19573.4375,-13.24
19585.625,-13.08
19597.8125,-13.09
19610,-12.98
19622.1875,-13.00
19634.375,-12.86
19646.5625,-12.82
19658.75,-12.74
19670.9375,-12.70
19683.125,-12.57
19695.3125,-12.64
19707.5,-12.57
19719.6875,-12.59
19731.875,-12.72
19744.0625,-12.80
19756.25,-12.98
19768.4375,-13.08
19780.625,-13.25
19792.8125,-13.42
19805,-13.52
19817.1875,-13.78
19829.375,-13.65
19841.5625,-13.61
19853.75,-13.60
19865.9375,-13.51
19878.125,-13.50
19890.3125,-13.57
19902.5,-13.36
19914.6875,-13.39
19926.875,-13.43
19939.0625,-13.45
19951.25,-13.62
19963.4375,-13.72
19975.625,-13.83
19987.8125,-13.95
20000,-14.14
